\wavsamp version for S15.0, 2006 Oct 02
\processing time 14:04:24 PST 10/02/2006
\character channelID = 0
| order |x_center |y_center |   wavelength   |  angle   |   x0    |   y0    |   x1    |   y1    |   x2    |   y2    |   x3    |   y3    |
| int   |  real   |  real   |    real        |   real   |  real   |  real   |  real   |  real   |  real   |  real   |  real   |  real   |
       2  61.13976  80.25328          5.12652  -2.400000  78.78318  80.00265  43.53634  81.47993  43.49634  80.50392  78.74317  79.02664
       2  61.09973  79.27727          5.15676  -2.400000  78.74317  79.02664  43.49634  80.50392  43.45628  79.52791  78.70311  78.05063
       2  61.05965  78.30126          5.18700  -2.400000  78.70311  78.05063  43.45628  79.52791  43.41617  78.55190  78.66300  77.07462
       2  61.01951  77.32526          5.21725  -2.400000  78.66300  77.07462  43.41617  78.55190  43.37601  77.57589  78.62285  76.09861
       2  60.97933  76.34925          5.24749  -2.400000  78.62285  76.09861  43.37601  77.57589  43.33580  76.59988  78.58264  75.12260
       2  60.93910  75.37324          5.27773  -2.400000  78.58264  75.12260  43.33580  76.59988  43.29554  75.62387  78.54238  74.14659
       2  60.89881  74.39723          5.30797  -2.400000  78.54238  74.14659  43.29554  75.62387  43.25523  74.64786  78.50207  73.17058
       2  60.85848  73.42122          5.33821  -2.400000  78.50207  73.17058  43.25523  74.64786  43.21487  73.67186  78.46171  72.19458
       2  60.81809  72.44521          5.36846  -2.400000  78.46171  72.19458  43.21487  73.67186  43.17446  72.69585  78.42130  71.21857
       2  60.77766  71.46920          5.39870  -2.400000  78.42130  71.21857  43.17446  72.69585  43.13400  71.71984  78.38084  70.24256
       2  60.73717  70.49319          5.42894  -2.400000  78.38084  70.24256  43.13400  71.71984  43.09349  70.74383  78.34033  69.26655
       2  60.69664  69.51718          5.45918  -2.400000  78.34033  69.26655  43.09349  70.74383  43.05293  69.76782  78.29977  68.29054
       2  60.65605  68.54117          5.48942  -2.400000  78.29977  68.29054  43.05293  69.76782  43.01232  68.79181  78.25915  67.31453
       2  60.61541  67.56517          5.51967  -2.400000  78.25915  67.31453  43.01232  68.79181  42.97166  67.81580  78.21849  66.33852
       2  60.57473  66.58916          5.54991  -2.400000  78.21849  66.33852  42.97166  67.81580  42.93095  66.83979  78.17778  65.36251
       2  60.53399  65.61315          5.58015  -2.400000  78.17778  65.36251  42.93095  66.83979  42.89019  65.86378  78.13702  64.38650
       2  60.49320  64.63714          5.61039  -2.400000  78.13702  64.38650  42.89019  65.86378  42.84937  64.88777  78.09621  63.41049
       2  60.45236  63.66113          5.64063  -2.400000  78.09621  63.41049  42.84937  64.88777  42.80851  63.91177  78.05534  62.43449
       2  60.41148  62.68512          5.67088  -2.400000  78.05534  62.43449  42.80851  63.91177  42.76760  62.93576  78.01443  61.45848
       2  60.37054  61.70911          5.70112  -2.400000  78.01443  61.45848  42.76760  62.93576  42.72663  61.95975  77.97347  60.48247
       2  60.32955  60.73310          5.73136  -2.400000  77.97347  60.48247  42.72663  61.95975  42.68562  60.98374  77.93245  59.50646
       2  60.28851  59.75709          5.76160  -2.400000  77.93245  59.50646  42.68562  60.98374  42.64455  60.00773  77.89139  58.53045
       2  60.24742  58.78108          5.79184  -2.400000  77.89139  58.53045  42.64455  60.00773  42.60344  59.03172  77.85027  57.55444
       2  60.20628  57.80508          5.82209  -2.400000  77.85027  57.55444  42.60344  59.03172  42.56228  58.05571  77.80911  56.57843
       2  60.16509  56.82907          5.85233  -2.400000  77.80911  56.57843  42.56228  58.05571  42.52106  57.07970  77.76789  55.60242
       2  60.12385  55.85306          5.88257  -2.400000  77.76789  55.60242  42.52106  57.07970  42.47979  56.10369  77.72663  54.62641
       2  60.08256  54.87705          5.91281  -2.400000  77.72663  54.62641  42.47979  56.10369  42.43848  55.12768  77.68531  53.65040
       2  60.04122  53.90104          5.94305  -2.400000  77.68531  53.65040  42.43848  55.12768  42.39711  54.15168  77.64395  52.67440
       2  59.99983  52.92503          5.97330  -2.400000  77.64395  52.67440  42.39711  54.15168  42.35570  53.17567  77.60253  51.69839
       2  59.95839  51.94902          6.00354  -2.400000  77.60253  51.69839  42.35570  53.17567  42.31423  52.19966  77.56106  50.72238
       2  59.91689  50.97301          6.03378  -2.400000  77.56106  50.72238  42.31423  52.19966  42.27271  51.22365  77.51955  49.74637
       2  59.87535  49.99700          6.06402  -2.400000  77.51955  49.74637  42.27271  51.22365  42.23114  50.24764  77.47798  48.77036
       2  59.83376  49.02099          6.09426  -2.400000  77.47798  48.77036  42.23114  50.24764  42.18953  49.27163  77.43636  47.79435
       2  59.79212  48.04499          6.12451  -2.400000  77.43636  47.79435  42.18953  49.27163  42.14786  48.29562  77.39469  46.81834
       2  59.75042  47.06898          6.15475  -2.400000  77.39469  46.81834  42.14786  48.29562  42.10614  47.31961  77.35297  45.84233
       2  59.70868  46.09297          6.18499  -2.400000  77.35297  45.84233  42.10614  47.31961  42.06437  46.34360  77.31121  44.86632
       2  59.66689  45.11696          6.21523  -2.400000  77.31121  44.86632  42.06437  46.34360  42.02255  45.36759  77.26939  43.89031
       2  59.62504  44.14095          6.24547  -2.400000  77.26939  43.89031  42.02255  45.36759  41.98068  44.39159  77.22752  42.91431
       2  59.58315  43.16494          6.27572  -2.400000  77.22752  42.91431  41.98068  44.39159  41.93876  43.41558  77.18560  41.93830
       2  59.54120  42.18893          6.30596  -2.400000  77.18560  41.93830  41.93876  43.41558  41.89679  42.43957  77.14363  40.96229
       2  59.49921  41.21292          6.33620  -2.400000  77.14363  40.96229  41.89679  42.43957  41.85477  41.46356  77.10161  39.98628
       2  59.45716  40.23691          6.36644  -2.400000  77.10161  39.98628  41.85477  41.46356  41.81270  40.48755  77.05954  39.01027
       2  59.41507  39.26090          6.39668  -2.400000  77.05954  39.01027  41.81270  40.48755  41.77058  39.51154  77.01742  38.03426
       2  59.37292  38.28490          6.42693  -2.400000  77.01742  38.03426  41.77058  39.51154  41.72841  38.53553  76.97524  37.05825
       2  59.33072  37.30889          6.45717  -2.400000  76.97524  37.05825  41.72841  38.53553  41.68619  37.55952  76.93302  36.08224
       2  59.28848  36.33288          6.48741  -2.400000  76.93302  36.08224  41.68619  37.55952  41.64392  36.58351  76.89075  35.10623
       2  59.24618  35.35687          6.51765  -2.400000  76.89075  35.10623  41.64392  36.58351  41.60160  35.60750  76.84843  34.13022
       2  59.20383  34.38086          6.54789  -2.400000  76.84843  34.13022  41.60160  35.60750  41.55922  34.63150  76.80606  33.15422
       2  59.16143  33.40485          6.57814  -2.400000  76.80606  33.15422  41.55922  34.63150  41.51680  33.65549  76.76363  32.17821
       2  59.11899  32.42884          6.60838  -2.400000  76.76363  32.17821  41.51680  33.65549  41.47433  32.67948  76.72116  31.20220
       2  59.07649  31.45283          6.63862  -2.400000  76.72116  31.20220  41.47433  32.67948  41.43180  31.70347  76.67864  30.22619
       2  59.03394  30.47682          6.66886  -2.400000  76.67864  30.22619  41.43180  31.70347  41.38923  30.72746  76.63606  29.25018
       2  58.99134  29.50081          6.69910  -2.400000  76.63606  29.25018  41.38923  30.72746  41.34661  29.75145  76.59344  28.27417
       2  58.94869  28.52481          6.72935  -2.400000  76.59344  28.27417  41.34661  29.75145  41.30393  28.77544  76.55077  27.29816
       2  58.90599  27.54880          6.75959  -2.400000  76.55077  27.29816  41.30393  28.77544  41.26121  27.79943  76.50804  26.32215
       2  58.86324  26.57279          6.78983  -2.400000  76.50804  26.32215  41.26121  27.79943  41.21843  26.82342  76.46527  25.34614
       2  58.82044  25.59678          6.82007  -2.400000  76.46527  25.34614  41.21843  26.82342  41.17561  25.84741  76.42244  24.37013
       2  58.77759  24.62077          6.85031  -2.400000  76.42244  24.37013  41.17561  25.84741  41.13273  24.87141  76.37956  23.39413
       2  58.73469  23.64476          6.88056  -2.400000  76.37956  23.39413  41.13273  24.87141  41.08981  23.89540  76.33664  22.41812
       2  58.69174  22.66875          6.91080  -2.400000  76.33664  22.41812  41.08981  23.89540  41.04683  22.91939  76.29366  21.44211
       2  58.64874  21.69274          6.94104  -2.400000  76.29366  21.44211  41.04683  22.91939  41.00380  21.94338  76.25064  20.46610
       2  58.60569  20.71673          6.97128  -2.400000  76.25064  20.46610  41.00380  21.94338  40.96073  20.96737  76.20756  19.49009
       2  58.56258  19.74072          7.00152  -2.400000  76.20756  19.49009  40.96073  20.96737  40.91760  19.99136  76.16443  18.51408
       2  58.51943  18.76472          7.03177  -2.400000  76.16443  18.51408  40.91760  19.99136  40.87442  19.01535  76.12125  17.53807
       2  58.47623  17.78871          7.06201  -2.400000  76.12125  17.53807  40.87442  19.01535  40.83119  18.03934  76.07803  16.56206
       2  58.43298  16.81270          7.09225  -2.400000  76.07803  16.56206  40.83119  18.03934  40.78791  17.06333  76.03475  15.58605
       2  58.38967  15.83669          7.12249  -2.400000  76.03475  15.58605  40.78791  17.06333  40.74459  16.08732  75.99142  14.61004
       2  58.34632  14.86068          7.15273  -2.400000  75.99142  14.61004  40.74459  16.08732  40.70121  15.11132  75.94804  13.63404
       2  58.30292  13.88467          7.18298  -2.400000  75.94804  13.63404  40.70121  15.11132  40.65778  14.13531  75.90461  12.65803
       2  58.25946  12.90866          7.21322  -2.400000  75.90461  12.65803  40.65778  14.13531  40.61430  13.15930  75.86113  11.68202
       2  58.21596  11.93265          7.24346  -2.400000  75.86113  11.68202  40.61430  13.15930  40.57077  12.18329  75.81760  10.70601
       2  58.17240  10.95664          7.27370  -2.400000  75.81760  10.70601  40.57077  12.18329  40.52719  11.20728  75.77402   9.73000
       2  58.12880   9.98063          7.30394  -2.400000  75.77402   9.73000  40.52719  11.20728  40.48356  10.23127  75.73039   8.75399
       2  58.08514   9.00463          7.33419  -2.400000  75.73039   8.75399  40.48356  10.23127  40.43988   9.25526  75.68671   7.77798
       2  58.04144   8.02862          7.36443  -2.400000  75.68671   7.77798  40.43988   9.25526  40.39615   8.27925  75.64298   6.80197
       2  57.99768   7.05261          7.39467  -2.400000  75.64298   6.80197  40.39615   8.27925  40.35237   7.30324  75.59920   5.82596
       2  57.95387   6.07660          7.42491  -2.400000  75.59920   5.82596  40.35237   7.30324  40.30853   6.32723  75.55537   4.84995
       2  57.91002   5.10059          7.45515  -2.400000  75.55537   4.84995  40.30853   6.32723  40.26465   5.35123  75.51149   3.87395
       2  57.86611   4.12458          7.48540  -2.400000  75.51149   3.87395  40.26465   5.35123  40.22072   4.37522  75.46755   2.89794
       2  57.82215   3.14857          7.51564  -2.400000  75.46755   2.89794  40.22072   4.37522  40.17674   3.39921  75.42357   1.92193
       2  57.77814   2.17256          7.54588  -2.400000  75.42357   1.92193  40.17674   3.39921  40.13270   2.42320  75.37954   0.94592
       2  57.73409   1.19655          7.57612  -2.400000  75.37954   0.94592  40.13270   2.42320  40.08862   1.44719  75.33545  -0.03009
       2  57.68998   0.22054          7.60636  -2.400000  75.33545  -0.03009  40.08862   1.44719  40.04449   0.47118  75.29132  -1.00610
       3  62.99976 127.03808          7.33419  -2.400000  80.64197 126.78745  45.39513 128.26473  45.35754 127.28872  80.60437 125.81144
       3  62.96214 126.06208          7.39467  -2.400000  80.60437 125.81144  45.35754 127.28872  45.31989 126.31272  80.56673 124.83544
       3  62.92447 125.08608          7.45515  -2.400000  80.56673 124.83544  45.31989 126.31272  45.28220 125.33672  80.52903 123.85944
       3  62.88675 124.11008          7.51564  -2.400000  80.52903 123.85944  45.28220 125.33672  45.24445 124.36072  80.49128 122.88344
       3  62.84897 123.13408          7.57612  -2.400000  80.49128 122.88344  45.24445 124.36072  45.20665 123.38472  80.45349 121.90744
       3  62.81115 122.15808          7.63660  -2.400000  80.45349 121.90744  45.20665 123.38472  45.16881 122.40872  80.41564 120.93144
       3  62.77328 121.18208          7.69709  -2.400000  80.41564 120.93144  45.16881 122.40872  45.13091 121.43272  80.37774 119.95544
       3  62.73536 120.20608          7.75757  -2.400000  80.37774 119.95544  45.13091 121.43272  45.09296 120.45672  80.33979 118.97944
       3  62.69738 119.23008          7.81805  -2.400000  80.33979 118.97944  45.09296 120.45672  45.05496 119.48072  80.30180 118.00344
       3  62.65936 118.25408          7.87854  -2.400000  80.30180 118.00344  45.05496 119.48072  45.01691 118.50472  80.26375 117.02744
       3  62.62129 117.27808          7.93902  -2.400000  80.26375 117.02744  45.01691 118.50472  44.97882 117.52872  80.22565 116.05144
       3  62.58316 116.30207          7.99951  -2.400000  80.22565 116.05144  44.97882 117.52872  44.94067 116.55271  80.18750 115.07543
       3  62.54499 115.32607          8.05999  -2.400000  80.18750 115.07543  44.94067 116.55271  44.90247 115.57671  80.14930 114.09943
       3  62.50677 114.35007          8.12047  -2.400000  80.14930 114.09943  44.90247 115.57671  44.86422 114.60071  80.11105 113.12343
       3  62.46849 113.37407          8.18096  -2.400000  80.11105 113.12343  44.86422 114.60071  44.82592 113.62471  80.07275 112.14743
       3  62.43017 112.39807          8.24144  -2.400000  80.07275 112.14743  44.82592 113.62471  44.78757 112.64871  80.03440 111.17143
       3  62.39179 111.42207          8.30192  -2.400000  80.03440 111.17143  44.78757 112.64871  44.74917 111.67271  79.99600 110.19543
       3  62.35337 110.44607          8.36241  -2.400000  79.99600 110.19543  44.74917 111.67271  44.71072 110.69671  79.95755 109.21943
       3  62.31489 109.47007          8.42289  -2.400000  79.95755 109.21943  44.71072 110.69671  44.67222 109.72071  79.91905 108.24343
       3  62.27636 108.49407          8.48337  -2.400000  79.91905 108.24343  44.67222 109.72071  44.63367 108.74471  79.88050 107.26743
       3  62.23779 107.51807          8.54386  -2.400000  79.88050 107.26743  44.63367 108.74471  44.59506 107.76871  79.84190 106.29143
       3  62.19916 106.54207          8.60434  -2.400000  79.84190 106.29143  44.59506 107.76871  44.55641 106.79271  79.80324 105.31543
       3  62.16048 105.56606          8.66483  -2.400000  79.80324 105.31543  44.55641 106.79271  44.51771 105.81670  79.76454 104.33942
       1  20.15014 126.76505          7.45515  -1.700000  37.80136 126.72880   2.53911 127.77536   2.49892 126.80130  37.76117 125.75474
       1  20.10995 125.79099          7.51564  -1.700000  37.76117 125.75474   2.49892 126.80130   2.45872 125.82724  37.72097 124.78068
       1  20.06974 124.81693          7.57612  -1.700000  37.72097 124.78068   2.45872 125.82724   2.41850 124.85318  37.68075 123.80662
       1  20.02951 123.84287          7.63660  -1.700000  37.68075 123.80662   2.41850 124.85318   2.37827 123.87912  37.64052 122.83256
       1  19.98927 122.86880          7.69709  -1.700000  37.64052 122.83256   2.37827 123.87912   2.33801 122.90505  37.60026 121.85849
       1  19.94901 121.89474          7.75757  -1.700000  37.60026 121.85849   2.33801 122.90505   2.29775 121.93099  37.56000 120.88443
       1  19.90873 120.92068          7.81805  -1.700000  37.56000 120.88443   2.29775 121.93099   2.25746 120.95693  37.51972 119.91037
       1  19.86844 119.94662          7.87854  -1.700000  37.51972 119.91037   2.25746 120.95693   2.21717 119.98287  37.47942 118.93631
       1  19.82814 118.97256          7.93902  -1.700000  37.47942 118.93631   2.21717 119.98287   2.17685 119.00880  37.43910 117.96225
       1  19.78781 117.99849          7.99951  -1.700000  37.43910 117.96225   2.17685 119.00880   2.13652 118.03474  37.39877 116.98818
       1  19.74748 117.02443          8.05999  -1.700000  37.39877 116.98818   2.13652 118.03474   2.09617 117.06068  37.35843 116.01412
       1  19.70712 116.05037          8.12047  -1.700000  37.35843 116.01412   2.09617 117.06068   2.05581 116.08662  37.31806 115.04006
       1  19.66675 115.07631          8.18096  -1.700000  37.31806 115.04006   2.05581 116.08662   2.01543 115.11256  37.27768 114.06600
       1  19.62636 114.10225          8.24144  -1.700000  37.27768 114.06600   2.01543 115.11256   1.97504 114.13849  37.23729 113.09194
       1  19.58596 113.12818          8.30192  -1.700000  37.23729 113.09194   1.97504 114.13849   1.93463 113.16443  37.19688 112.11787
       1  19.54554 112.15412          8.36241  -1.700000  37.19688 112.11787   1.93463 113.16443   1.89420 112.19037  37.15645 111.14381
       1  19.50511 111.18006          8.42289  -1.700000  37.15645 111.14381   1.89420 112.19037   1.85376 111.21631  37.11601 110.16975
       1  19.46466 110.20600          8.48337  -1.700000  37.11601 110.16975   1.85376 111.21631   1.81330 110.24225  37.07555 109.19569
       1  19.42419 109.23194          8.54386  -1.700000  37.07555 109.19569   1.81330 110.24225   1.77283 109.26818  37.03508 108.22162
       1  19.38371 108.25787          8.60434  -1.700000  37.03508 108.22162   1.77283 109.26818   1.73234 108.29412  36.99459 107.24756
       1  19.34321 107.28381          8.66483  -1.700000  36.99459 107.24756   1.73234 108.29412   1.69183 107.32006  36.95408 106.27350
       1  19.30270 106.30975          8.72531  -1.700000  36.95408 106.27350   1.69183 107.32006   1.65131 106.34600  36.91356 105.29944
       1  19.26217 105.33569          8.78579  -1.700000  36.91356 105.29944   1.65131 106.34600   1.61077 105.37194  36.87302 104.32538
       1  19.22162 104.36162          8.84628  -1.700000  36.87302 104.32538   1.61077 105.37194   1.57022 104.39787  36.83247 103.35131
       1  19.18106 103.38756          8.90676  -1.700000  36.83247 103.35131   1.57022 104.39787   1.52965 103.42381  36.79190 102.37725
       1  19.14048 102.41350          8.96724  -1.700000  36.79190 102.37725   1.52965 103.42381   1.48906 102.44975  36.75131 101.40319
       1  19.09989 101.43944          9.02773  -1.700000  36.75131 101.40319   1.48906 102.44975   1.44846 101.47569  36.71071 100.42913
       1  19.05928 100.46538          9.08821  -1.700000  36.71071 100.42913   1.44846 101.47569   1.40784 100.50162  36.67009  99.45507
       1  19.01865  99.49131          9.14869  -1.700000  36.67009  99.45507   1.40784 100.50162   1.36721  99.52756  36.62946  98.48100
       1  18.97801  98.51725          9.20918  -1.700000  36.62946  98.48100   1.36721  99.52756   1.32656  98.55350  36.58881  97.50694
       1  18.93735  97.54319          9.26966  -1.700000  36.58881  97.50694   1.32656  98.55350   1.28589  97.57944  36.54814  96.53288
       1  18.89668  96.56913          9.33015  -1.700000  36.54814  96.53288   1.28589  97.57944   1.24521  96.60538  36.50746  95.55882
       1  18.85599  95.59507          9.39063  -1.700000  36.50746  95.55882   1.24521  96.60538   1.20451  95.63131  36.46676  94.58475
       1  18.81528  94.62100          9.45111  -1.700000  36.46676  94.58475   1.20451  95.63131   1.16380  94.65725  36.42605  93.61069
       1  18.77456  93.64694          9.51160  -1.700000  36.42605  93.61069   1.16380  94.65725   1.12307  93.68319  36.38532  92.63663
       1  18.73382  92.67288          9.57208  -1.700000  36.38532  92.63663   1.12307  93.68319   1.08232  92.70913  36.34457  91.66257
       1  18.69307  91.69882          9.63256  -1.700000  36.34457  91.66257   1.08232  92.70913   1.04156  91.73507  36.30381  90.68851
