\wavsamp version 5.0 (Thu May  9 10:19:35 PDT 2002)
\processing time 15:18:27 PST 12/13/2003
\character channelID = 2
| order |x_center |y_center |   wavelength   |  angle   |   x0    |   y0    |   x1    |   y1    |   x2    |   y2    |   x3    |   y3    |
| int   |  real   |  real   |    real        |   real   |  real   |  real   |  real   |  real   |  real   |  real   |  real   |  real   |
       2  78.87805  77.99987         14.04510  -1.200000  96.85991  78.07576  60.86780  78.82968  60.89528  77.92398  96.88739  77.17005
       2  78.90375  77.09416         14.12978  -1.200000  96.88739  77.17005  60.89528  77.92398  60.91928  77.01827  96.91138  76.26434
       2  78.92608  76.18845         14.21445  -1.200000  96.91138  76.26434  60.91928  77.01827  60.93999  76.11256  96.93210  75.35863
       2  78.94524  75.28274         14.29913  -1.200000  96.93210  75.35863  60.93999  76.11256  60.95764  75.20685  96.94975  74.45292
       2  78.96144  74.37703         14.38381  -1.200000  96.94975  74.45292  60.95764  75.20685  60.97244  74.30114  96.96454  73.54722
       2  78.97488  73.47133         14.46848  -1.200000  96.96454  73.54722  60.97244  74.30114  60.98458  73.39543  96.97668  72.64151
       2  78.98577  72.56562         14.55316  -1.200000  96.97668  72.64151  60.98458  73.39543  60.99426  72.48973  96.98636  71.73580
       2  78.99429  71.65991         14.63784  -1.200000  96.98636  71.73580  60.99426  72.48973  61.00167  71.58402  96.99378  70.83009
       2  79.00064  70.75420         14.72251  -1.200000  96.99378  70.83009  61.00167  71.58402  61.00700  70.67831  96.99911  69.92438
       2  79.00500  69.84849         14.80719  -1.200000  96.99911  69.92438  61.00700  70.67831  61.01044  69.77260  97.00255  69.01867
       2  79.00756  68.94278         14.89187  -1.200000  97.00255  69.01867  61.01044  69.77260  61.01216  68.86689  97.00426  68.11297
       2  79.00848  68.03708         14.97655  -1.200000  97.00426  68.11297  61.01216  68.86689  61.01233  67.96119  97.00443  67.20726
       2  79.00794  67.13137         15.06122  -1.200000  97.00443  67.20726  61.01233  67.96119  61.01112  67.05548  97.00323  66.30155
       2  79.00610  66.22566         15.14590  -1.200000  97.00323  66.30155  61.01112  67.05548  61.00870  66.14977  97.00080  65.39584
       2  79.00314  65.31995         15.23058  -1.200000  97.00080  65.39584  61.00870  66.14977  61.00522  65.24406  96.99733  64.49013
       2  78.99919  64.41424         15.31525  -1.200000  96.99733  64.49013  61.00522  65.24406  61.00085  64.33835  96.99295  63.58442
       2  78.99442  63.50853         15.39993  -1.200000  96.99295  63.58442  61.00085  64.33835  60.99572  63.43264  96.98782  62.67872
       2  78.98897  62.60283         15.48461  -1.200000  96.98782  62.67872  60.99572  63.43264  60.98998  62.52694  96.98209  61.77301
       2  78.98298  61.69712         15.56928  -1.200000  96.98209  61.77301  60.98998  62.52694  60.98378  61.62123  96.97589  60.86730
       2  78.97660  60.79141         15.65396  -1.200000  96.97589  60.86730  60.98378  61.62123  60.97725  60.71552  96.96935  59.96159
       2  78.96995  59.88570         15.73864  -1.200000  96.96935  59.96159  60.97725  60.71552  60.97051  59.80981  96.96262  59.05588
       2  78.96316  58.97999         15.82331  -1.200000  96.96262  59.05588  60.97051  59.80981  60.96370  58.90410  96.95581  58.15017
       2  78.95636  58.07428         15.90799  -1.200000  96.95581  58.15017  60.96370  58.90410  60.95694  57.99839  96.94904  57.24447
       2  78.94966  57.16858         15.99267  -1.200000  96.94904  57.24447  60.95694  57.99839  60.95033  57.09269  96.94244  56.33876
       2  78.94318  56.26287         16.07734  -1.200000  96.94244  56.33876  60.95033  57.09269  60.94400  56.18698  96.93611  55.43305
       2  78.93703  55.35716         16.16202  -1.200000  96.93611  55.43305  60.94400  56.18698  60.93805  55.28127  96.93016  54.52734
       2  78.93131  54.45145         16.24670  -1.200000  96.93016  54.52734  60.93805  55.28127  60.93259  54.37556  96.92469  53.62163
       2  78.92612  53.54574         16.33138  -1.200000  96.92469  53.62163  60.93259  54.37556  60.92770  53.46985  96.91980  52.71592
       2  78.92156  52.64003         16.41605  -1.200000  96.91980  52.71592  60.92770  53.46985  60.92348  52.56414  96.91559  51.81022
       2  78.91771  51.73433         16.50073  -1.200000  96.91559  51.81022  60.92348  52.56414  60.92003  51.65844  96.91213  50.90451
       2  78.91466  50.82862         16.58541  -1.200000  96.91213  50.90451  60.92003  51.65844  60.91742  50.75273  96.90952  49.99880
       2  78.91250  49.92291         16.67008  -1.200000  96.90952  49.99880  60.91742  50.75273  60.91573  49.84702  96.90783  49.09309
       2  78.91130  49.01720         16.75476  -1.200000  96.90783  49.09309  60.91573  49.84702  60.91503  48.94131  96.90713  48.18738
       2  78.91113  48.11149         16.83944  -1.200000  96.90713  48.18738  60.91503  48.94131  60.91540  48.03560  96.90750  47.28167
       2  78.91205  47.20578         16.92411  -1.200000  96.90750  47.28167  60.91540  48.03560  60.91689  47.12989  96.90900  46.37597
       2  78.91414  46.30008         17.00879  -1.200000  96.90900  46.37597  60.91689  47.12989  60.91958  46.22419  96.91168  45.47026
       2  78.91743  45.39437         17.09347  -1.200000  96.91168  45.47026  60.91958  46.22419  60.92350  45.31848  96.91561  44.56455
       2  78.92200  44.48866         17.17814  -1.200000  96.91561  44.56455  60.92350  45.31848  60.92872  44.41277  96.92082  43.65884
       2  78.92788  43.58295         17.26282  -1.200000  96.92082  43.65884  60.92872  44.41277  60.93527  43.50706  96.92738  42.75313
       2  78.93512  42.67724         17.34750  -1.200000  96.92738  42.75313  60.93527  43.50706  60.94321  42.60135  96.93531  41.84742
       2  78.94375  41.77153         17.43217  -1.200000  96.93531  41.84742  60.94321  42.60135  60.95255  41.69564  96.94466  40.94172
       2  78.95382  40.86583         17.51685  -1.200000  96.94466  40.94172  60.95255  41.69564  60.96334  40.78994  96.95545  40.03601
       2  78.96534  39.96012         17.60153  -1.200000  96.95545  40.03601  60.96334  40.78994  60.97560  39.88423  96.96771  39.13030
       2  78.97834  39.05441         17.68621  -1.200000  96.96771  39.13030  60.97560  39.88423  60.98935  38.97852  96.98146  38.22459
       2  78.99285  38.14870         17.77088  -1.200000  96.98146  38.22459  60.98935  38.97852  61.00461  38.07281  96.99672  37.31888
       2  79.00887  37.24299         17.85556  -1.200000  96.99672  37.31888  61.00461  38.07281  61.02140  37.16710  97.01350  36.41317
       2  79.02641  36.33728         17.94024  -1.200000  97.01350  36.41317  61.02140  37.16710  61.03971  36.26139  97.03181  35.50747
       2  79.04549  35.43158         18.02491  -1.200000  97.03181  35.50747  61.03971  36.26139  61.05955  35.35569  97.05165  34.60176
       2  79.06609  34.52587         18.10959  -1.200000  97.05165  34.60176  61.05955  35.35569  61.08091  34.44998  97.07302  33.69605
       2  79.08822  33.62016         18.19427  -1.200000  97.07302  33.69605  61.08091  34.44998  61.10380  33.54427  97.09591  32.79034
       2  79.11187  32.71445         18.27894  -1.200000  97.09591  32.79034  61.10380  33.54427  61.12820  32.63856  97.12031  31.88463
       2  79.13702  31.80874         18.36362  -1.200000  97.12031  31.88463  61.12820  32.63856  61.15410  31.73285  97.14620  30.97892
       2  79.16365  30.90303         18.44830  -1.200000  97.14620  30.97892  61.15410  31.73285  61.18146  30.82714  97.17356  30.07322
       2  79.19174  29.99733         18.53297  -1.200000  97.17356  30.07322  61.18146  30.82714  61.21027  29.92144  97.20238  29.16751
       2  79.22126  29.09162         18.61765  -1.200000  97.20238  29.16751  61.21027  29.92144  61.24050  29.01573  97.23260  28.26180
       2  79.25218  28.18591         18.70233  -1.200000  97.23260  28.26180  61.24050  29.01573  61.27210  28.11002  97.26421  27.35609
       2  79.28446  27.28020         18.78700  -1.200000  97.26421  27.35609  61.27210  28.11002  61.30505  27.20431  97.29715  26.45038
       2  79.31806  26.37449         18.87168  -1.200000  97.29715  26.45038  61.30505  27.20431  61.33929  26.29860  97.33140  25.54467
       2  79.35293  25.46878         18.95636  -1.200000  97.33140  25.54467  61.33929  26.29860  61.37478  25.39289  97.36688  24.63897
       2  79.38902  24.56308         19.04104  -1.200000  97.36688  24.63897  61.37478  25.39289  61.41146  24.48719  97.40356  23.73326
       2  79.42628  23.65737         19.12571  -1.200000  97.40356  23.73326  61.41146  24.48719  61.44927  23.58148  97.44137  22.82755
       2  79.46463  22.75166         19.21039  -1.200000  97.44137  22.82755  61.44927  23.58148  61.48814  22.67577  97.48025  21.92184
       2  79.50402  21.84595         19.29507  -1.200000  97.48025  21.92184  61.48814  22.67577  61.52802  21.77006  97.52013  21.01613
       2  79.54437  20.94024         19.37974  -1.200000  97.52013  21.01613  61.52802  21.77006  61.56883  20.86435  97.56093  20.11043
       2  79.58561  20.03453         19.46442  -1.200000  97.56093  20.11043  61.56883  20.86435  61.61048  19.95864  97.60258  19.20472
       2  79.62765  19.12883         19.54910  -1.200000  97.60258  19.20472  61.61048  19.95864  61.65290  19.05294  97.64500  18.29901
       2  79.67042  18.22312         19.63377  -1.200000  97.64500  18.29901  61.65290  19.05294  61.69600  18.14723  97.68810  17.39330
       2  79.71382  17.31741         19.71845  -1.200000  97.68810  17.39330  61.69600  18.14723  61.73968  17.24152  97.73178  16.48759
       2  79.75776  16.41170         19.80313  -1.200000  97.73178  16.48759  61.73968  17.24152  61.78385  16.33581  97.77595  15.58188
       2  79.80214  15.50599         19.88780  -1.200000  97.77595  15.58188  61.78385  16.33581  61.82841  15.43010  97.82051  14.67618
       2  79.84685  14.60028         19.97248  -1.200000  97.82051  14.67618  61.82841  15.43010  61.87325  14.52439  97.86535  13.77047
       2  79.89179  13.69458         20.05716  -1.200000  97.86535  13.77047  61.87325  14.52439  61.91825  13.61869  97.91036  12.86476
       2  79.93684  12.78887         20.14183  -1.200000  97.91036  12.86476  61.91825  13.61869  61.96332  12.71298  97.95542  11.95905
       2  79.98188  11.88316         20.22651  -1.200000  97.95542  11.95905  61.96332  12.71298  62.00831  11.80727  98.00041  11.05334
       2  80.02679  10.97745         20.31119  -1.200000  98.00041  11.05334  62.00831  11.80727  62.05311  10.90156  98.04522  10.14763
       2  80.07145  10.07174         20.39587  -1.200000  98.04522  10.14763  62.05311  10.90156  62.09759   9.99585  98.08969   9.24193
       2  80.11572   9.16603         20.48054  -1.200000  98.08969   9.24193  62.09759   9.99585  62.14161   9.09014  98.13372   8.33622
       2  80.15946   8.26033         20.56522  -1.200000  98.13372   8.33622  62.14161   9.09014  62.18503   8.18444  98.17714   7.43051
       2  80.20253   7.35462         20.64990  -1.200000  98.17714   7.43051  62.18503   8.18444  62.22772   7.27873  98.21982   6.52480
       2  80.24478   6.44891         20.73457  -1.200000  98.21982   6.52480  62.22772   7.27873  62.26951   6.37302  98.26161   5.61909
       2  80.28607   5.54320         20.81925  -1.200000  98.26161   5.61909  62.26951   6.37302  62.31025   5.46731  98.30236   4.71338
       2  80.32624   4.63749         20.90393  -1.200000  98.30236   4.71338  62.31025   5.46731  62.34979   4.56160  98.34190   3.80768
       2  80.36512   3.73178         20.98860  -1.200000  98.34190   3.80768  62.34979   4.56160  62.38797   3.65589  98.38007   2.90197
       2  80.40255   2.82608         21.07328  -1.200000  98.38007   2.90197  62.38797   3.65589  62.42461   2.75019  98.41672   1.99626
       2  80.43835   1.92037         21.15796  -1.200000  98.41672   1.99626  62.42461   2.75019  62.45954   1.84448  98.45165   1.09055
       2  80.47237   1.01466         21.24263  -1.200000  98.45165   1.09055  62.45954   1.84448  62.49259   0.93877  98.48470   0.18484
       2  80.50440   0.10895         21.32731  -1.200000  98.48470   0.18484  62.49259   0.93877  62.52357   0.03306  98.51568  -0.72087
       3  81.31724 127.86404         19.37974  -1.200000  99.31763 127.71971  63.32553 128.47363  63.31651 128.00838  99.30862 127.25445
       3  81.30755 127.39878         19.46442  -1.200000  99.30862 127.25445  63.31651 128.00838  63.30614 127.54312  99.29824 126.78919
       3  81.29650 126.93353         19.54910  -1.200000  99.29824 126.78919  63.30614 127.54312  63.29441 127.07786  99.28651 126.32393
       3  81.28408 126.46827         19.63377  -1.200000  99.28651 126.32393  63.29441 127.07786  63.28131 126.61260  99.27342 125.85868
       3  81.27031 126.00301         19.71845  -1.200000  99.27342 125.85868  63.28131 126.61260  63.26686 126.14735  99.25897 125.39342
       3  81.25518 125.53776         19.80313  -1.200000  99.25897 125.39342  63.26686 126.14735  63.25105 125.68209  99.24316 124.92816
       3  81.23869 125.07250         19.88780  -1.200000  99.24316 124.92816  63.25105 125.68209  63.23389 125.21683  99.22599 124.46291
       3  81.22084 124.60724         19.97248  -1.200000  99.22599 124.46291  63.23389 125.21683  63.21536 124.75158  99.20746 123.99765
       3  81.20164 124.14199         20.05716  -1.200000  99.20746 123.99765  63.21536 124.75158  63.19547 124.28632  99.18758 123.53239
       3  81.18107 123.67673         20.14183  -1.200000  99.18758 123.53239  63.19547 124.28632  63.17423 123.82106  99.16633 123.06714
       3  81.15915 123.21147         20.22651  -1.200000  99.16633 123.06714  63.17423 123.82106  63.15162 123.35581  99.14373 122.60188
       3  81.13586 122.74621         20.31119  -1.200000  99.14373 122.60188  63.15162 123.35581  63.12766 122.89055  99.11976 122.13662
       3  81.11122 122.28096         20.39587  -1.200000  99.11976 122.13662  63.12766 122.89055  63.10234 122.42529  99.09444 121.67137
       3  81.08522 121.81570         20.48054  -1.200000  99.09444 121.67137  63.10234 122.42529  63.07565 121.96004  99.06776 121.20611
       3  81.05786 121.35044         20.56522  -1.200000  99.06776 121.20611  63.07565 121.96004  63.04761 121.49478  99.03972 120.74085
       3  81.02914 120.88519         20.64990  -1.200000  99.03972 120.74085  63.04761 121.49478  63.01822 121.02952  99.01032 120.27559
       3  80.99906 120.41993         20.73457  -1.200000  99.01032 120.27559  63.01822 121.02952  62.98746 120.56426  98.97956 119.81034
       3  80.96762 119.95467         20.81925  -1.200000  98.97956 119.81034  62.98746 120.56426  62.95534 120.09901  98.94744 119.34508
       3  80.93482 119.48942         20.90393  -1.200000  98.94744 119.34508  62.95534 120.09901  62.92186 119.63375  98.91397 118.87982
       3  80.90067 119.02416         20.98860  -1.200000  98.91397 118.87982  62.92186 119.63375  62.88703 119.16849  98.87913 118.41457
       3  80.86515 118.55890         21.07328  -1.200000  98.87913 118.41457  62.88703 119.16849  62.85084 118.70324  98.84294 117.94931
       3  80.82828 118.09365         21.15796  -1.200000  98.84294 117.94931  62.85084 118.70324  62.81328 118.23798  98.80539 117.48405
       3  80.79005 117.62839         21.24263  -1.200000  98.80539 117.48405  62.81328 118.23798  62.77437 117.77272  98.76648 117.01880
       3  80.75046 117.16313         21.32731  -1.200000  98.76648 117.01880  62.77437 117.77272  62.73410 117.30747  98.72621 116.55354
       3  80.70951 116.69787         21.41199  -1.200000  98.72621 116.55354  62.73410 117.30747  62.69247 116.84221  98.68458 116.08828
       3  80.66720 116.23262         21.49666  -1.200000  98.68458 116.08828  62.69247 116.84221  62.64948 116.37695  98.64159 115.62303
       3  80.62353 115.76736         21.58134  -1.200000  98.64159 115.62303  62.64948 116.37695  62.60513 115.91170  98.59724 115.15777
       3  80.57850 115.30210         21.66602  -1.200000  98.59724 115.15777  62.60513 115.91170  62.55943 115.44644  98.55153 114.69251
       1  42.41555 127.68983         19.54910  -1.200000  60.43876 127.78820  24.44665 128.54212  24.39253 127.59146  60.38463 126.83754
       1  42.36181 126.73917         19.71845  -1.200000  60.38463 126.83754  24.39253 127.59146  24.33917 126.64080  60.33128 125.88687
       1  42.30883 125.78851         19.88780  -1.200000  60.33128 125.88687  24.33917 126.64080  24.28658 125.69014  60.27869 124.93621
       1  42.25663 124.83785         20.05716  -1.200000  60.27869 124.93621  24.28658 125.69014  24.23476 124.73948  60.22687 123.98555
       1  42.20519 123.88718         20.22651  -1.200000  60.22687 123.98555  24.23476 124.73948  24.18371 123.78882  60.17581 123.03489
       1  42.15452 122.93652         20.39587  -1.200000  60.17581 123.03489  24.18371 123.78882  24.13342 122.83816  60.12552 122.08423
       1  42.10461 121.98586         20.56522  -1.200000  60.12552 122.08423  24.13342 122.83816  24.08390 121.88749  60.07600 121.13357
       1  42.05548 121.03520         20.73457  -1.200000  60.07600 121.13357  24.08390 121.88749  24.03514 120.93683  60.02725 120.18291
       1  42.00711 120.08454         20.90393  -1.200000  60.02725 120.18291  24.03514 120.93683  23.98716 119.98617  59.97926 119.23225
       1  41.95951 119.13388         21.07328  -1.200000  59.97926 119.23225  23.98716 119.98617  23.93994 119.03551  59.93205 118.28158
       1  41.91267 118.18322         21.24263  -1.200000  59.93205 118.28158  23.93994 119.03551  23.89349 118.08485  59.88559 117.33092
       1  41.86660 117.23256         21.41199  -1.200000  59.88559 117.33092  23.89349 118.08485  23.84781 117.13419  59.83991 116.38026
       1  41.82131 116.28189         21.58134  -1.200000  59.83991 116.38026  23.84781 117.13419  23.80289 116.18353  59.79500 115.42960
       1  41.77677 115.33123         21.75070  -1.200000  59.79500 115.42960  23.80289 116.18353  23.75874 115.23287  59.75085 114.47894
       1  41.73301 114.38057         21.92005  -1.200000  59.75085 114.47894  23.75874 115.23287  23.71536 114.28220  59.70747 113.52828
       1  41.69001 113.42991         22.08940  -1.200000  59.70747 113.52828  23.71536 114.28220  23.67275 113.33154  59.66485 112.57762
       1  41.64778 112.47925         22.25876  -1.200000  59.66485 112.57762  23.67275 113.33154  23.63090 112.38088  59.62301 111.62695
       1  41.60632 111.52859         22.42811  -1.200000  59.62301 111.62695  23.63090 112.38088  23.58982 111.43022  59.58193 110.67629
       1  41.56562 110.57793         22.59746  -1.200000  59.58193 110.67629  23.58982 111.43022  23.54951 110.47956  59.54161 109.72563
       1  41.52569 109.62726         22.76682  -1.200000  59.54161 109.72563  23.54951 110.47956  23.50997 109.52890  59.50207 108.77497
       1  41.48653 108.67660         22.93617  -1.200000  59.50207 108.77497  23.50997 109.52890  23.47119 108.57824  59.46329 107.82431
       1  41.44814 107.72594         23.10553  -1.200000  59.46329 107.82431  23.47119 108.57824  23.43318 107.62758  59.42528 106.87365
       1  41.41051 106.77528         23.27488  -1.200000  59.42528 106.87365  23.43318 107.62758  23.39594 106.67691  59.38804 105.92299
       1  41.37366 105.82462         23.44423  -1.200000  59.38804 105.92299  23.39594 106.67691  23.35946 105.72625  59.35157 104.97233
       1  41.33756 104.87396         23.61359  -1.200000  59.35157 104.97233  23.35946 105.72625  23.32375 104.77559  59.31586 104.02166
       1  41.30224 103.92330         23.78294  -1.200000  59.31586 104.02166  23.32375 104.77559  23.28881 103.82493  59.28092 103.07100
       1  41.26768 102.97264         23.95229  -1.200000  59.28092 103.07100  23.28881 103.82493  23.25464 102.87427  59.24675 102.12034
       1  41.23390 102.02197         24.12165  -1.200000  59.24675 102.12034  23.25464 102.87427  23.22124 101.92361  59.21334 101.16968
