\wavsamp version 5.0 (Thu May  9 10:19:35 PDT 2002)
\processing time 19:49:11 PST 01/05/2004
\character channelID = 3
| order |x_center |y_center |   wavelength   |  angle   |   x0    |   y0    |   x1    |   y1    |   x2    |   y2    |   x3    |   y3    |
| int   |  real   |  real   |    real        |   real   |  real   |  real   |  real   |  real   |  real   |  real   |  real   |  real   |
      20   7.63430   0.00005         18.72780   0.700000  10.04778  -0.53842   5.24814  -0.59706   5.22083   0.53851  10.02047   0.59715
      20   7.60698   1.13610         18.74341   0.700000  10.02047   0.59715   5.22083   0.53851   5.19349   1.67504   9.99313   1.73368
      20   7.57963   2.27310         18.75904   0.700000   9.99313   1.73368   5.19349   1.67504   5.16613   2.81251   9.96577   2.87115
      20   7.55226   3.41104         18.77468   0.700000   9.96577   2.87115   5.16613   2.81251   5.13875   3.95093   9.93839   4.00957
      20   7.52487   4.54994         18.79033   0.700000   9.93839   4.00957   5.13875   3.95093   5.11135   5.09030   9.91099   5.14894
      20   7.49746   5.68978         18.80600   0.700000   9.91099   5.14894   5.11135   5.09030   5.08392   6.23062   9.88356   6.28926
      20   7.47002   6.83058         18.82167   0.700000   9.88356   6.28926   5.08392   6.23062   5.05647   7.37189   9.85611   7.43053
      20   7.44256   7.97232         18.83736   0.700000   9.85611   7.43053   5.05647   7.37189   5.02900   8.51411   9.82864   8.57276
      20   7.41507   9.11502         18.85307   0.700000   9.82864   8.57276   5.02900   8.51411   5.00150   9.65729   9.80115   9.71593
      20   7.38757  10.25867         18.86879   0.700000   9.80115   9.71593   5.00150   9.65729   4.97399  10.80142   9.77363  10.86006
      20   7.36004  11.40328         18.88452   0.700000   9.77363  10.86006   4.97399  10.80142   4.94644  11.94650   9.74609  12.00514
      20   7.33248  12.54884         18.90026   0.700000   9.74609  12.00514   4.94644  11.94650   4.91888  13.09253   9.71852  13.15118
      20   7.30491  13.69535         18.91602   0.700000   9.71852  13.15118   4.91888  13.09253   4.89129  14.23953   9.69093  14.29817
      20   7.27731  14.84282         18.93179   0.700000   9.69093  14.29817   4.89129  14.23953   4.86368  15.38747   9.66332  15.44611
      20   7.24969  15.99125         18.94757   0.700000   9.66332  15.44611   4.86368  15.38747   4.83605  16.53638   9.63569  16.59502
      20   7.22204  17.14063         18.96337   0.700000   9.63569  16.59502   4.83605  16.53638   4.80839  17.68624   9.60804  17.74488
      20   7.19437  18.29097         18.97918   0.700000   9.60804  17.74488   4.80839  17.68624   4.78071  18.83706   9.58036  18.89570
      20   7.16668  19.44227         18.99500   0.700000   9.58036  18.89570   4.78071  18.83706   4.75301  19.98884   9.55265  20.04748
      20   7.13897  20.59453         19.01083   0.700000   9.55265  20.04748   4.75301  19.98884   4.72529  21.14158   9.52493  21.20023
      20   7.11123  21.74776         19.02668   0.700000   9.52493  21.20023   4.72529  21.14158   4.69754  22.29529   9.49718  22.35393
      20   7.08347  22.90194         19.04255   0.700000   9.49718  22.35393   4.69754  22.29529   4.66977  23.44995   9.46941  23.50859
      20   7.05569  24.05709         19.05842   0.700000   9.46941  23.50859   4.66977  23.44995   4.64197  24.60558   9.44161  24.66422
      20   7.02788  25.21319         19.07431   0.700000   9.44161  24.66422   4.64197  24.60558   4.61415  25.76217   9.41379  25.82081
      20   7.00005  26.37027         19.09021   0.700000   9.41379  25.82081   4.61415  25.76217   4.58631  26.91972   9.38595  26.97836
      20   6.97220  27.52830         19.10613   0.700000   9.38595  26.97836   4.58631  26.91972   4.55845  28.07824   9.35809  28.13688
      20   6.94432  28.68731         19.12206   0.700000   9.35809  28.13688   4.55845  28.07824   4.53056  29.23773   9.33020  29.29637
      20   6.91643  29.84728         19.13800   0.700000   9.33020  29.29637   4.53056  29.23773   4.50265  30.39818   9.30229  30.45682
      20   6.88850  31.00821         19.15395   0.700000   9.30229  30.45682   4.50265  30.39818   4.47471  31.55960   9.27436  31.61824
      20   6.86056  32.17012         19.16992   0.700000   9.27436  31.61824   4.47471  31.55960   4.44676  32.72199   9.24640  32.78063
      20   6.83259  33.33299         19.18590   0.700000   9.24640  32.78063   4.44676  32.72199   4.41878  33.88535   9.21842  33.94399
      20   6.80460  34.49683         19.20190   0.700000   9.21842  33.94399   4.41878  33.88535   4.39077  35.04967   9.19041  35.10831
      20   6.77658  35.66164         19.21790   0.700000   9.19041  35.10831   4.39077  35.04967   4.36274  36.21497   9.16239  36.27361
      20   6.74854  36.82743         19.23393   0.700000   9.16239  36.27361   4.36274  36.21497   4.33469  37.38124   9.13434  37.43988
      20   6.72048  37.99418         19.24996   0.700000   9.13434  37.43988   4.33469  37.38124   4.30662  38.54848   9.10626  38.60712
      20   6.69239  39.16191         19.26601   0.700000   9.10626  38.60712   4.30662  38.54848   4.27852  39.71670   9.07816  39.77534
      20   6.66428  40.33061         19.28207   0.700000   9.07816  39.77534   4.27852  39.71670   4.25040  40.88589   9.05004  40.94453
      20   6.63615  41.50029         19.29815   0.700000   9.05004  40.94453   4.25040  40.88589   4.22226  42.05605   9.02190  42.11469
      20   6.60799  42.67094         19.31423   0.700000   9.02190  42.11469   4.22226  42.05605   4.19409  43.22719   8.99373  43.28583
      20   6.57981  43.84257         19.33034   0.700000   8.99373  43.28583   4.19409  43.22719   4.16590  44.39930   8.96554  44.45795
      20   6.55161  45.01517         19.34645   0.700000   8.96554  44.45795   4.16590  44.39930   4.13768  45.57240   8.93732  45.63104
      20   6.52338  46.18875         19.36258   0.700000   8.93732  45.63104   4.13768  45.57240   4.10944  46.74647   8.90909  46.80511
      20   6.49513  47.36331         19.37872   0.700000   8.90909  46.80511   4.10944  46.74647   4.08118  47.92152   8.88082  47.98016
      20   6.46686  48.53885         19.39488   0.700000   8.88082  47.98016   4.08118  47.92152   4.05290  49.09755   8.85254  49.15619
      20   6.43856  49.71537         19.41105   0.700000   8.85254  49.15619   4.05290  49.09755   4.02459  50.27456   8.82423  50.33320
      20   6.41024  50.89287         19.42723   0.700000   8.82423  50.33320   4.02459  50.27456   3.99625  51.45255   8.79590  51.51119
      20   6.38190  52.07136         19.44343   0.700000   8.79590  51.51119   3.99625  51.45255   3.96790  52.63152   8.76754  52.69016
      20   6.35353  53.25082         19.45964   0.700000   8.76754  52.69016   3.96790  52.63152   3.93952  53.81148   8.73916  53.87012
      20   6.32514  54.43127         19.47586   0.700000   8.73916  53.87012   3.93952  53.81148   3.91111  54.99242   8.71076  55.05106
      20   6.29672  55.61270         19.49210   0.700000   8.71076  55.05106   3.91111  54.99242   3.88269  56.17434   8.68233  56.23298
      20   6.26828  56.79512         19.50835   0.700000   8.68233  56.23298   3.88269  56.17434   3.85424  57.35725   8.65388  57.41589
      20   6.23982  57.97852         19.52461   0.700000   8.65388  57.41589   3.85424  57.35725   3.82576  58.54115   8.62540  58.59979
      20   6.21133  59.16291         19.54089   0.700000   8.62540  58.59979   3.82576  58.54115   3.79726  59.72603   8.59690  59.78467
      20   6.18282  60.34829         19.55718   0.700000   8.59690  59.78467   3.79726  59.72603   3.76874  60.91190   8.56838  60.97055
      20   6.15429  61.53465         19.57348   0.700000   8.56838  60.97055   3.76874  60.91190   3.74019  62.09876   8.53984  62.15741
      20   6.12573  62.72201         19.58980   0.700000   8.53984  62.15741   3.74019  62.09876   3.71162  63.28661   8.51127  63.34525
      20   6.09715  63.91035         19.60613   0.700000   8.51127  63.34525   3.71162  63.28661   3.68303  64.47545   8.48267  64.53409
      20   6.06854  65.09969         19.62248   0.700000   8.48267  64.53409   3.68303  64.47545   3.65441  65.66528   8.45406  65.72393
      20   6.03991  66.29002         19.63884   0.700000   8.45406  65.72393   3.65441  65.66528   3.62577  66.85611   8.42541  66.91475
      20   6.01126  67.48134         19.65521   0.700000   8.42541  66.91475   3.62577  66.85611   3.59711  68.04792   8.39675  68.10656
      20   5.98258  68.67365         19.67160   0.700000   8.39675  68.10656   3.59711  68.04792   3.56842  69.24073   8.36806  69.29937
      20   5.95388  69.86695         19.68799   0.700000   8.36806  69.29937   3.56842  69.24073   3.53970  70.43454   8.33935  70.49318
      20   5.92516  71.06126         19.70441   0.700000   8.33935  70.49318   3.53970  70.43454   3.51097  71.62934   8.31061  71.68798
      20   5.89641  72.25655         19.72084   0.700000   8.31061  71.68798   3.51097  71.62934   3.48221  72.82513   8.28185  72.88377
      20   5.86764  73.45285         19.73728   0.700000   8.28185  72.88377   3.48221  72.82513   3.45342  74.02192   8.25306  74.08056
      20   5.83884  74.65014         19.75373   0.700000   8.25306  74.08056   3.45342  74.02192   3.42461  75.21971   8.22425  75.27835
      20   5.81002  75.84843         19.77020   0.700000   8.22425  75.27835   3.42461  75.21971   3.39578  76.41850   8.19542  76.47714
      20   5.78117  77.04772         19.78668   0.700000   8.19542  76.47714   3.39578  76.41850   3.36692  77.61829   8.16656  77.67693
      20   5.75230  78.24801         19.80318   0.700000   8.16656  77.67693   3.36692  77.61829   3.33804  78.81908   8.13768  78.87772
      20   5.72341  79.44929         19.81969   0.700000   8.13768  78.87772   3.33804  78.81908   3.30914  80.02087   8.10878  80.07951
      20   5.69449  80.65158         19.83621   0.700000   8.10878  80.07951   3.30914  80.02087   3.28021  81.22366   8.07985  81.28230
      20   5.66555  81.85488         19.85275   0.700000   8.07985  81.28230   3.28021  81.22366   3.25125  82.42745   8.05090  82.48610
      20   5.63659  83.05917         19.86930   0.700000   8.05090  82.48610   3.25125  82.42745   3.22228  83.63225   8.02192  83.69089
      20   5.60760  84.26447         19.88586   0.700000   8.02192  83.69089   3.22228  83.63225   3.19328  84.83805   7.99292  84.89670
      20   5.57858  85.47078         19.90244   0.700000   7.99292  84.89670   3.19328  84.83805   3.16425  86.04486   7.96389  86.10350
      20   5.54955  86.67809         19.91903   0.700000   7.96389  86.10350   3.16425  86.04486   3.13520  87.25268   7.93484  87.31132
      20   5.52048  87.88641         19.93564   0.700000   7.93484  87.31132   3.13520  87.25268   3.10613  88.46150   7.90577  88.52014
      20   5.49140  89.09573         19.95226   0.700000   7.90577  88.52014   3.10613  88.46150   3.07703  89.67133   7.87667  89.72997
      20   5.46229  90.30607         19.96889   0.700000   7.87667  89.72997   3.07703  89.67133   3.04790  90.88216   7.84755  90.94081
      20   5.43315  91.51741         19.98554   0.700000   7.84755  90.94081   3.04790  90.88216   3.01876  92.09401   7.81840  92.15265
      20   5.40399  92.72976         20.00220   0.700000   7.81840  92.15265   3.01876  92.09401   2.98959  93.30687   7.78923  93.36551
      20   5.37481  93.94312         20.01888   0.700000   7.78923  93.36551   2.98959  93.30687   2.96039  94.52074   7.76003  94.57938
      20   5.34560  95.15750         20.03557   0.700000   7.76003  94.57938   2.96039  94.52074   2.93117  95.73562   7.73081  95.79426
      20   5.31637  96.37289         20.05227   0.700000   7.73081  95.79426   2.93117  95.73562   2.90193  96.95151   7.70157  97.01015
      20   5.28711  97.58929         20.06899   0.700000   7.70157  97.01015   2.90193  96.95151   2.87266  98.16842   7.67230  98.22706
      20   5.25783  98.80670         20.08572   0.700000   7.67230  98.22706   2.87266  98.16842   2.84336  99.38634   7.64301  99.44498
      20   5.22853 100.02513         20.10246   0.700000   7.64301  99.44498   2.84336  99.38634   2.81405 100.60528   7.61369 100.66392
      20   5.19920 101.24457         20.11922   0.700000   7.61369 100.66392   2.81405 100.60528   2.78470 101.82523   7.58435 101.88387
      20   5.16984 102.46504         20.13600   0.700000   7.58435 101.88387   2.78470 101.82523   2.75534 103.04620   7.55498 103.10484
      20   5.14046 103.68652         20.15278   0.700000   7.55498 103.10484   2.75534 103.04620   2.72595 104.26819   7.52559 104.32683
      20   5.11106 104.90901         20.16958   0.700000   7.52559 104.32683   2.72595 104.26819   2.69653 105.49120   7.49617 105.54984
      20   5.08163 106.13253         20.18640   0.700000   7.49617 105.54984   2.69653 105.49120   2.66709 106.71522   7.46673 106.77387
      20   5.05218 107.35707         20.20323   0.700000   7.46673 106.77387   2.66709 106.71522   2.63763 107.94027   7.43727 107.99891
      20   5.02270 108.58263         20.22007   0.700000   7.43727 107.99891   2.63763 107.94027   2.60814 109.16634   7.40778 109.22498
      20   4.99320 109.80921         20.23693   0.700000   7.40778 109.22498   2.60814 109.16634   2.57863 110.39343   7.37827 110.45207
      20   4.96368 111.03681         20.25380   0.700000   7.37827 110.45207   2.57863 110.39343   2.54909 111.62155   7.34873 111.68019
      20   4.93413 112.26544         20.27068   0.700000   7.34873 111.68019   2.54909 111.62155   2.51952 112.85068   7.31917 112.90933
      20   4.90455 113.49509         20.28758   0.700000   7.31917 112.90933   2.51952 112.85068   2.48994 114.08085   7.28958 114.13949
      20   4.87495 114.72576         20.30450   0.700000   7.28958 114.13949   2.48994 114.08085   2.46032 115.31204   7.25997 115.37068
      20   4.84533 115.95746         20.32142   0.700000   7.25997 115.37068   2.46032 115.31204   2.43069 116.54425   7.23033 116.60289
      20   4.81568 117.19019         20.33837   0.700000   7.23033 116.60289   2.43069 116.54425   2.40103 117.77749   7.20067 117.83613
      20   4.78600 118.42395         20.35532   0.700000   7.20067 117.83613   2.40103 117.77749   2.37134 119.01176   7.17098 119.07040
      20   4.75631 119.65873         20.37229   0.700000   7.17098 119.07040   2.37134 119.01176   2.34163 120.24706   7.14127 120.30570
      20   4.72658 120.89455         20.38928   0.700000   7.14127 120.30570   2.34163 120.24706   2.31189 121.48339   7.11153 121.54203
      20   4.69683 122.13139         20.40627   0.700000   7.11153 121.54203   2.31189 121.48339   2.28213 122.72075   7.08177 122.77939
      20   4.66706 123.36927         20.42329   0.700000   7.08177 122.77939   2.28213 122.72075   2.25235 123.95914   7.05199 124.01779
      20   4.63726 124.60818         20.44031   0.700000   7.05199 124.01779   2.25235 123.95914   2.22254 125.19857   7.02218 125.25721
      20   4.60744 125.84812         20.45735   0.700000   7.02218 125.25721   2.22254 125.19857   2.19270 126.43903   6.99234 126.49767
      20   4.57759 127.08909         20.47441   0.700000   6.99234 126.49767   2.19270 126.43903   2.16284 127.68052   6.96248 127.73916
      19  14.67762   0.23640         19.67160   1.920000  17.08536  -0.22155  12.28805  -0.38237  12.26987   0.69434  17.06718   0.85516
      19  14.65943   1.31355         19.68799   1.920000  17.06718   0.85516  12.26987   0.69434  12.25168   1.77194  17.04898   1.93276
      19  14.64123   2.39161         19.70441   1.920000  17.04898   1.93276  12.25168   1.77194  12.23347   2.85045  17.03077   3.01127
      19  14.62301   3.47056         19.72084   1.920000  17.03077   3.01127  12.23347   2.85045  12.21524   3.92985  17.01255   4.09067
      19  14.60478   4.55041         19.73728   1.920000  17.01255   4.09067  12.21524   3.92985  12.19700   5.01015  16.99431   5.17097
      19  14.58653   5.63116         19.75373   1.920000  16.99431   5.17097  12.19700   5.01015  12.17875   6.09135  16.97605   6.25217
      19  14.56827   6.71281         19.77020   1.920000  16.97605   6.25217  12.17875   6.09135  12.16048   7.17346  16.95778   7.33428
      19  14.54999   7.79537         19.78668   1.920000  16.95778   7.33428  12.16048   7.17346  12.14219   8.25646  16.93950   8.41728
      19  14.53169   8.87883         19.80318   1.920000  16.93950   8.41728  12.14219   8.25646  12.12389   9.34037  16.92120   9.50119
      19  14.51338   9.96319         19.81969   1.920000  16.92120   9.50119  12.12389   9.34037  12.10557  10.42518  16.90288  10.58600
      19  14.49506  11.04845         19.83621   1.920000  16.90288  10.58600  12.10557  10.42518  12.08724  11.51090  16.88455  11.67172
      19  14.47672  12.13462         19.85275   1.920000  16.88455  11.67172  12.08724  11.51090  12.06889  12.59752  16.86620  12.75834
      19  14.45837  13.22169         19.86930   1.920000  16.86620  12.75834  12.06889  12.59752  12.05053  13.68505  16.84784  13.84587
      19  14.44000  14.30967         19.88586   1.920000  16.84784  13.84587  12.05053  13.68505  12.03215  14.77348  16.82946  14.93430
      19  14.42161  15.39856         19.90244   1.920000  16.82946  14.93430  12.03215  14.77348  12.01376  15.86282  16.81107  16.02364
      19  14.40321  16.48836         19.91903   1.920000  16.81107  16.02364  12.01376  15.86282  11.99535  16.95307  16.79266  17.11389
      19  14.38479  17.57906         19.93564   1.920000  16.79266  17.11389  11.99535  16.95307  11.97693  18.04423  16.77423  18.20505
      19  14.36636  18.67067         19.95226   1.920000  16.77423  18.20505  11.97693  18.04423  11.95849  19.13630  16.75579  19.29712
      19  14.34792  19.76320         19.96889   1.920000  16.75579  19.29712  11.95849  19.13630  11.94004  20.22928  16.73734  20.39010
      19  14.32945  20.85663         19.98554   1.920000  16.73734  20.39010  11.94004  20.22928  11.92157  21.32317  16.71887  21.48399
      19  14.31098  21.95098         20.00220   1.920000  16.71887  21.48399  11.92157  21.32317  11.90308  22.41797  16.70039  22.57879
      19  14.29248  23.04624         20.01888   1.920000  16.70039  22.57879  11.90308  22.41797  11.88458  23.51368  16.68188  23.67450
      19  14.27397  24.14241         20.03557   1.920000  16.68188  23.67450  11.88458  23.51368  11.86606  24.61031  16.66337  24.77113
      19  14.25545  25.23949         20.05227   1.920000  16.66337  24.77113  11.86606  24.61031  11.84753  25.70785  16.64484  25.86867
      19  14.23691  26.33749         20.06899   1.920000  16.64484  25.86867  11.84753  25.70785  11.82898  26.80631  16.62629  26.96713
      19  14.21836  27.43641         20.08572   1.920000  16.62629  26.96713  11.82898  26.80631  11.81042  27.90568  16.60773  28.06650
      19  14.19979  28.53624         20.10246   1.920000  16.60773  28.06650  11.81042  27.90568  11.79184  29.00597  16.58915  29.16679
      19  14.18120  29.63699         20.11922   1.920000  16.58915  29.16679  11.79184  29.00597  11.77325  30.10718  16.57056  30.26800
      19  14.16260  30.73865         20.13600   1.920000  16.57056  30.26800  11.77325  30.10718  11.75464  31.20930  16.55195  31.37012
      19  14.14398  31.84124         20.15278   1.920000  16.55195  31.37012  11.75464  31.20930  11.73602  32.31235  16.53332  32.47317
      19  14.12535  32.94474         20.16958   1.920000  16.53332  32.47317  11.73602  32.31235  11.71738  33.41631  16.51468  33.57713
      19  14.10670  34.04916         20.18640   1.920000  16.51468  33.57713  11.71738  33.41631  11.69872  34.52119  16.49603  34.68201
      19  14.08804  35.15451         20.20323   1.920000  16.49603  34.68201  11.69872  34.52119  11.68005  35.62700  16.47736  35.78782
      19  14.06936  36.26077         20.22007   1.920000  16.47736  35.78782  11.68005  35.62700  11.66136  36.73372  16.45867  36.89454
      19  14.05067  37.36796         20.23693   1.920000  16.45867  36.89454  11.66136  36.73372  11.64266  37.84137  16.43997  38.00219
