\wavsamp version for S13.0, 2005 Sep 13, D. Shupe
\processing time 13:37:15 PST 09/13/2005
\wavsamp software version 5.1 (Wed Apr 20 08:45:04 PDT 2005)
\character channelID = 0
| order |x_center |y_center |   wavelength   |  angle   |   x0    |   y0    |   x1    |   y1    |   x2    |   y2    |   x3    |   y3    |
| int   |  real   |  real   |    real        |   real   |  real   |  real   |  real   |  real   |  real   |  real   |  real   |  real   |
       2  62.26066  80.25328          5.12652  -2.400000  79.91611  80.00265  44.66928  81.47993  44.60532  80.50392  79.85216  79.02664
       2  62.19695  79.27727          5.15676  -2.400000  79.85216  79.02664  44.60532  80.50392  44.54187  79.52791  79.78870  78.05063
       2  62.13374  78.30126          5.18700  -2.400000  79.78870  78.05063  44.54187  79.52791  44.47891  78.55190  79.72574  77.07462
       2  62.07103  77.32526          5.21725  -2.400000  79.72574  77.07462  44.47891  78.55190  44.41645  77.57589  79.66328  76.09861
       2  62.00882  76.34925          5.24749  -2.400000  79.66328  76.09861  44.41645  77.57589  44.35449  76.59988  79.60132  75.12260
       2  61.94711  75.37324          5.27773  -2.400000  79.60132  75.12260  44.35449  76.59988  44.29302  75.62387  79.53986  74.14659
       2  61.88590  74.39723          5.30797  -2.400000  79.53986  74.14659  44.29302  75.62387  44.23206  74.64786  79.47889  73.17058
       2  61.82518  73.42122          5.33821  -2.400000  79.47889  73.17058  44.23206  74.64786  44.17160  73.67186  79.41843  72.19458
       2  61.76497  72.44521          5.36846  -2.400000  79.41843  72.19458  44.17160  73.67186  44.11163  72.69585  79.35846  71.21857
       2  61.70525  71.46920          5.39870  -2.400000  79.35846  71.21857  44.11163  72.69585  44.05216  71.71984  79.29900  70.24256
       2  61.64603  70.49319          5.42894  -2.400000  79.29900  70.24256  44.05216  71.71984  43.99320  70.74383  79.24003  69.26655
       2  61.58732  69.51718          5.45918  -2.400000  79.24003  69.26655  43.99320  70.74383  43.93473  69.76782  79.18156  68.29054
       2  61.52910  68.54117          5.48942  -2.400000  79.18156  68.29054  43.93473  69.76782  43.87676  68.79181  79.12359  67.31453
       2  61.47138  67.56517          5.51967  -2.400000  79.12359  67.31453  43.87676  68.79181  43.81929  67.81580  79.06612  66.33852
       2  61.41415  66.58916          5.54991  -2.400000  79.06612  66.33852  43.81929  67.81580  43.76231  66.83979  79.00915  65.36251
       2  61.35743  65.61315          5.58015  -2.400000  79.00915  65.36251  43.76231  66.83979  43.70584  65.86378  78.95267  64.38650
       2  61.30121  64.63714          5.61039  -2.400000  78.95267  64.38650  43.70584  65.86378  43.64987  64.88777  78.89670  63.41049
       2  61.24548  63.66113          5.64063  -2.400000  78.89670  63.41049  43.64987  64.88777  43.59439  63.91177  78.84122  62.43449
       2  61.19026  62.68512          5.67088  -2.400000  78.84122  62.43449  43.59439  63.91177  43.53941  62.93576  78.78625  61.45848
       2  61.13553  61.70911          5.70112  -2.400000  78.78625  61.45848  43.53941  62.93576  43.48494  61.95975  78.73177  60.48247
       2  61.08130  60.73310          5.73136  -2.400000  78.73177  60.48247  43.48494  61.95975  43.43096  60.98374  78.67779  59.50646
       2  61.02757  59.75709          5.76160  -2.400000  78.67779  59.50646  43.43096  60.98374  43.37748  60.00773  78.62431  58.53045
       2  60.97434  58.78108          5.79184  -2.400000  78.62431  58.53045  43.37748  60.00773  43.32450  59.03172  78.57133  57.55444
       2  60.92161  57.80508          5.82209  -2.400000  78.57133  57.55444  43.32450  59.03172  43.27202  58.05571  78.51885  56.57843
       2  60.86938  56.82907          5.85233  -2.400000  78.51885  56.57843  43.27202  58.05571  43.22003  57.07970  78.46687  55.60242
       2  60.81764  55.85306          5.88257  -2.400000  78.46687  55.60242  43.22003  57.07970  43.16855  56.10369  78.41538  54.62641
       2  60.76641  54.87705          5.91281  -2.400000  78.41538  54.62641  43.16855  56.10369  43.11756  55.12768  78.36440  53.65040
       2  60.71567  53.90104          5.94305  -2.400000  78.36440  53.65040  43.11756  55.12768  43.06708  54.15168  78.31391  52.67440
       2  60.66544  52.92503          5.97330  -2.400000  78.31391  52.67440  43.06708  54.15168  43.01709  53.17567  78.26392  51.69839
       2  60.61570  51.94902          6.00354  -2.400000  78.26392  51.69839  43.01709  53.17567  42.96760  52.19966  78.21443  50.72238
       2  60.56646  50.97301          6.03378  -2.400000  78.21443  50.72238  42.96760  52.19966  42.91861  51.22365  78.16544  49.74637
       2  60.51772  49.99700          6.06402  -2.400000  78.16544  49.74637  42.91861  51.22365  42.87012  50.24764  78.11695  48.77036
       2  60.46948  49.02099          6.09426  -2.400000  78.11695  48.77036  42.87012  50.24764  42.82213  49.27163  78.06896  47.79435
       2  60.42174  48.04499          6.12451  -2.400000  78.06896  47.79435  42.82213  49.27163  42.77463  48.29562  78.02147  46.81834
       2  60.37449  47.06898          6.15475  -2.400000  78.02147  46.81834  42.77463  48.29562  42.72764  47.31961  77.97447  45.84233
       2  60.32775  46.09297          6.18499  -2.400000  77.97447  45.84233  42.72764  47.31961  42.68115  46.34360  77.92798  44.86632
       2  60.28150  45.11696          6.21523  -2.400000  77.92798  44.86632  42.68115  46.34360  42.63515  45.36759  77.88198  43.89031
       2  60.23575  44.14095          6.24547  -2.400000  77.88198  43.89031  42.63515  45.36759  42.58965  44.39159  77.83648  42.91431
       2  60.19051  43.16494          6.27572  -2.400000  77.83648  42.91431  42.58965  44.39159  42.54465  43.41558  77.79149  41.93830
       2  60.14576  42.18893          6.30596  -2.400000  77.79149  41.93830  42.54465  43.41558  42.50015  42.43957  77.74699  40.96229
       2  60.10151  41.21292          6.33620  -2.400000  77.74699  40.96229  42.50015  42.43957  42.45615  41.46356  77.70299  39.98628
       2  60.05776  40.23691          6.36644  -2.400000  77.70299  39.98628  42.45615  41.46356  42.41265  40.48755  77.65948  39.01027
       2  60.01450  39.26090          6.39668  -2.400000  77.65948  39.01027  42.41265  40.48755  42.36965  39.51154  77.61648  38.03426
       2  59.97175  38.28490          6.42693  -2.400000  77.61648  38.03426  42.36965  39.51154  42.32714  38.53553  77.57398  37.05825
       2  59.92950  37.30889          6.45717  -2.400000  77.57398  37.05825  42.32714  38.53553  42.28514  37.55952  77.53197  36.08224
       2  59.88774  36.33288          6.48741  -2.400000  77.53197  36.08224  42.28514  37.55952  42.24363  36.58351  77.49047  35.10623
       2  59.84648  35.35687          6.51765  -2.400000  77.49047  35.10623  42.24363  36.58351  42.20262  35.60750  77.44946  34.13022
       2  59.80572  34.38086          6.54789  -2.400000  77.44946  34.13022  42.20262  35.60750  42.16212  34.63150  77.40895  33.15422
       2  59.76547  33.40485          6.57814  -2.400000  77.40895  33.15422  42.16212  34.63150  42.12211  33.65549  77.36894  32.17821
       2  59.72571  32.42884          6.60838  -2.400000  77.36894  32.17821  42.12211  33.65549  42.08260  32.67948  77.32943  31.20220
       2  59.68644  31.45283          6.63862  -2.400000  77.32943  31.20220  42.08260  32.67948  42.04358  31.70347  77.29042  30.22619
       2  59.64768  30.47682          6.66886  -2.400000  77.29042  30.22619  42.04358  31.70347  42.00507  30.72746  77.25190  29.25018
       2  59.60942  29.50081          6.69910  -2.400000  77.25190  29.25018  42.00507  30.72746  41.96706  29.75145  77.21389  28.27417
       2  59.57165  28.52481          6.72935  -2.400000  77.21389  28.27417  41.96706  29.75145  41.92954  28.77544  77.17638  27.29816
       2  59.53439  27.54880          6.75959  -2.400000  77.17638  27.29816  41.92954  28.77544  41.89253  27.79943  77.13936  26.32215
       2  59.49762  26.57279          6.78983  -2.400000  77.13936  26.32215  41.89253  27.79943  41.85601  26.82342  77.10284  25.34614
       2  59.46135  25.59678          6.82007  -2.400000  77.10284  25.34614  41.85601  26.82342  41.81999  25.84741  77.06682  24.37013
       2  59.42559  24.62077          6.85031  -2.400000  77.06682  24.37013  41.81999  25.84741  41.78447  24.87141  77.03130  23.39413
       2  59.39032  23.64476          6.88056  -2.400000  77.03130  23.39413  41.78447  24.87141  41.74945  23.89540  76.99628  22.41812
       2  59.35554  22.66875          6.91080  -2.400000  76.99628  22.41812  41.74945  23.89540  41.71493  22.91939  76.96176  21.44211
       2  59.32127  21.69274          6.94104  -2.400000  76.96176  21.44211  41.71493  22.91939  41.68091  21.94338  76.92774  20.46610
       2  59.28750  20.71673          6.97128  -2.400000  76.92774  20.46610  41.68091  21.94338  41.64738  20.96737  76.89422  19.49009
       2  59.25422  19.74072          7.00152  -2.400000  76.89422  19.49009  41.64738  20.96737  41.61436  19.99136  76.86119  18.51408
       2  59.22145  18.76472          7.03177  -2.400000  76.86119  18.51408  41.61436  19.99136  41.58183  19.01535  76.82866  17.53807
       2  59.18917  17.78871          7.06201  -2.400000  76.82866  17.53807  41.58183  19.01535  41.54980  18.03934  76.79664  16.56206
       2  59.15739  16.81270          7.09225  -2.400000  76.79664  16.56206  41.54980  18.03934  41.51828  17.06333  76.76511  15.58605
       2  59.12612  15.83669          7.12249  -2.400000  76.76511  15.58605  41.51828  17.06333  41.48725  16.08732  76.73408  14.61004
       2  59.09534  14.86068          7.15273  -2.400000  76.73408  14.61004  41.48725  16.08732  41.45672  15.11132  76.70355  13.63404
       2  59.06505  13.88467          7.18298  -2.400000  76.70355  13.63404  41.45672  15.11132  41.42668  14.13531  76.67352  12.65803
       2  59.03527  12.90866          7.21322  -2.400000  76.67352  12.65803  41.42668  14.13531  41.39715  13.15930  76.64398  11.68202
       2  59.00599  11.93265          7.24346  -2.400000  76.64398  11.68202  41.39715  13.15930  41.36812  12.18329  76.61495  10.70601
       2  58.97720  10.95664          7.27370  -2.400000  76.61495  10.70601  41.36812  12.18329  41.33958  11.20728  76.58642   9.73000
       2  58.94892   9.98063          7.30394  -2.400000  76.58642   9.73000  41.33958  11.20728  41.31155  10.23127  76.55838   8.75399
       2  58.92113   9.00463          7.33419  -2.400000  76.55838   8.75399  41.31155  10.23127  41.28401   9.25526  76.53084   7.77798
       2  58.89384   8.02862          7.36443  -2.400000  76.53084   7.77798  41.28401   9.25526  41.25697   8.27925  76.50380   6.80197
       2  58.86706   7.05261          7.39467  -2.400000  76.50380   6.80197  41.25697   8.27925  41.23043   7.30324  76.47727   5.82596
       2  58.84077   6.07660          7.42491  -2.400000  76.47727   5.82596  41.23043   7.30324  41.20439   6.32723  76.45122   4.84995
       2  58.81498   5.10059          7.45515  -2.400000  76.45122   4.84995  41.20439   6.32723  41.17885   5.35123  76.42568   3.87395
       2  58.78968   4.12458          7.48540  -2.400000  76.42568   3.87395  41.17885   5.35123  41.15381   4.37522  76.40064   2.89794
       2  58.76489   3.14857          7.51564  -2.400000  76.40064   2.89794  41.15381   4.37522  41.12926   3.39921  76.37610   1.92193
       2  58.74060   2.17256          7.54588  -2.400000  76.37610   1.92193  41.12926   3.39921  41.10522   2.42320  76.35205   0.94592
       2  58.71680   1.19655          7.57612  -2.400000  76.35205   0.94592  41.10522   2.42320  41.08167   1.44719  76.32851  -0.03009
       2  58.69350   0.22054          7.60636  -2.400000  76.32851  -0.03009  41.08167   1.44719  41.05863   0.47118  76.30546  -1.00610
       3  64.23857 127.03808          7.33419  -2.400000  81.92178 126.78745  46.67495 128.26473  46.55667 127.28872  81.80350 125.81144
       3  64.12291 126.06208          7.39467  -2.400000  81.80350 125.81144  46.55667 127.28872  46.44363 126.31272  81.69046 124.83544
       3  64.01248 125.08608          7.45515  -2.400000  81.69046 124.83544  46.44363 126.31272  46.33582 125.33672  81.58265 123.85944
       3  63.90730 124.11008          7.51564  -2.400000  81.58265 123.85944  46.33582 125.33672  46.23325 124.36072  81.48008 122.88344
       3  63.80734 123.13408          7.57612  -2.400000  81.48008 122.88344  46.23325 124.36072  46.13591 123.38472  81.38275 121.90744
       3  63.71263 122.15808          7.63660  -2.400000  81.38275 121.90744  46.13591 123.38472  46.04382 122.40872  81.29065 120.93144
       3  63.62315 121.18208          7.69709  -2.400000  81.29065 120.93144  46.04382 122.40872  45.95695 121.43272  81.20379 119.95544
       3  63.53890 120.20608          7.75757  -2.400000  81.20379 119.95544  45.95695 121.43272  45.87533 120.45672  81.12216 118.97944
       3  63.45989 119.23008          7.81805  -2.400000  81.12216 118.97944  45.87533 120.45672  45.79894 119.48072  81.04577 118.00344
       3  63.38612 118.25408          7.87854  -2.400000  81.04577 118.00344  45.79894 119.48072  45.72778 118.50472  80.97462 117.02744
       3  63.31759 117.27808          7.93902  -2.400000  80.97462 117.02744  45.72778 118.50472  45.66187 117.52872  80.90870 116.05144
       3  63.25429 116.30207          7.99951  -2.400000  80.90870 116.05144  45.66187 117.52872  45.60118 116.55271  80.84802 115.07543
       3  63.19622 115.32607          8.05999  -2.400000  80.84802 115.07543  45.60118 116.55271  45.54574 115.57671  80.79257 114.09943
       3  63.14339 114.35007          8.12047  -2.400000  80.79257 114.09943  45.54574 115.57671  45.49553 114.60071  80.74236 113.12343
       3  63.09580 113.37407          8.18096  -2.400000  80.74236 113.12343  45.49553 114.60071  45.45055 113.62471  80.69739 112.14743
       3  63.05345 112.39807          8.24144  -2.400000  80.69739 112.14743  45.45055 113.62471  45.41082 112.64871  80.65765 111.17143
       3  63.01633 111.42207          8.30192  -2.400000  80.65765 111.17143  45.41082 112.64871  45.37631 111.67271  80.62315 110.19543
       3  62.98444 110.44607          8.36241  -2.400000  80.62315 110.19543  45.37631 111.67271  45.34705 110.69671  80.59388 109.21943
       3  62.95780 109.47007          8.42289  -2.400000  80.59388 109.21943  45.34705 110.69671  45.32302 109.72071  80.56985 108.24343
       3  62.93638 108.49407          8.48337  -2.400000  80.56985 108.24343  45.32302 109.72071  45.30423 108.74471  80.55106 107.26743
       3  62.92021 107.51807          8.54386  -2.400000  80.55106 107.26743  45.30423 108.74471  45.29067 107.76871  80.53750 106.29143
       3  62.90927 106.54207          8.60434  -2.400000  80.53750 106.29143  45.29067 107.76871  45.28235 106.79271  80.52918 105.31543
       3  62.90357 105.56606          8.66483  -2.400000  80.52918 105.31543  45.28235 106.79271  45.27926 105.81670  80.52610 104.33942
       1  21.18243 126.76505          7.45515  -1.700000  38.83359 126.72880   3.57134 127.77536   3.53127 126.80130  38.79352 125.75474
       1  21.14235 125.79099          7.51564  -1.700000  38.79352 125.75474   3.53127 126.80130   3.49118 125.82724  38.75343 124.78068
       1  21.10225 124.81693          7.57612  -1.700000  38.75343 124.78068   3.49118 125.82724   3.45107 124.85318  38.71332 123.80662
       1  21.06213 123.84287          7.63660  -1.700000  38.71332 123.80662   3.45107 124.85318   3.41093 123.87912  38.67318 122.83256
       1  21.02198 122.86880          7.69709  -1.700000  38.67318 122.83256   3.41093 123.87912   3.37077 122.90505  38.63302 121.85849
       1  20.98181 121.89474          7.75757  -1.700000  38.63302 121.85849   3.37077 122.90505   3.33059 121.93099  38.59284 120.88443
       1  20.94162 120.92068          7.81805  -1.700000  38.59284 120.88443   3.33059 121.93099   3.29039 120.95693  38.55264 119.91037
       1  20.90140 119.94662          7.87854  -1.700000  38.55264 119.91037   3.29039 120.95693   3.25016 119.98287  38.51241 118.93631
       1  20.86116 118.97256          7.93902  -1.700000  38.51241 118.93631   3.25016 119.98287   3.20991 119.00880  38.47216 117.96225
       1  20.82090 117.99849          7.99951  -1.700000  38.47216 117.96225   3.20991 119.00880   3.16963 118.03474  38.43189 116.98818
       1  20.78062 117.02443          8.05999  -1.700000  38.43189 116.98818   3.16963 118.03474   3.12934 117.06068  38.39159 116.01412
       1  20.74031 116.05037          8.12047  -1.700000  38.39159 116.01412   3.12934 117.06068   3.08902 116.08662  38.35127 115.04006
       1  20.69998 115.07631          8.18096  -1.700000  38.35127 115.04006   3.08902 116.08662   3.04868 115.11256  38.31093 114.06600
       1  20.65962 114.10225          8.24144  -1.700000  38.31093 114.06600   3.04868 115.11256   3.00831 114.13849  38.27056 113.09194
       1  20.61925 113.12818          8.30192  -1.700000  38.27056 113.09194   3.00831 114.13849   2.96793 113.16443  38.23018 112.11787
       1  20.57885 112.15412          8.36241  -1.700000  38.23018 112.11787   2.96793 113.16443   2.92752 112.19037  38.18977 111.14381
       1  20.53843 111.18006          8.42289  -1.700000  38.18977 111.14381   2.92752 112.19037   2.88708 111.21631  38.14933 110.16975
       1  20.49798 110.20600          8.48337  -1.700000  38.14933 110.16975   2.88708 111.21631   2.84663 110.24225  38.10888 109.19569
       1  20.45752 109.23194          8.54386  -1.700000  38.10888 109.19569   2.84663 110.24225   2.80615 109.26818  38.06840 108.22162
       1  20.41703 108.25787          8.60434  -1.700000  38.06840 108.22162   2.80615 109.26818   2.76565 108.29412  38.02790 107.24756
       1  20.37651 107.28381          8.66483  -1.700000  38.02790 107.24756   2.76565 108.29412   2.72512 107.32006  37.98737 106.27350
       1  20.33598 106.30975          8.72531  -1.700000  37.98737 106.27350   2.72512 107.32006   2.68457 106.34600  37.94683 105.29944
       1  20.29542 105.33569          8.78579  -1.700000  37.94683 105.29944   2.68457 106.34600   2.64400 105.37194  37.90625 104.32538
       1  20.25484 104.36162          8.84628  -1.700000  37.90625 104.32538   2.64400 105.37194   2.60341 104.39787  37.86566 103.35131
       1  20.21423 103.38756          8.90676  -1.700000  37.86566 103.35131   2.60341 104.39787   2.56280 103.42381  37.82505 102.37725
       1  20.17360 102.41350          8.96724  -1.700000  37.82505 102.37725   2.56280 103.42381   2.52216 102.44975  37.78441 101.40319
       1  20.13295 101.43944          9.02773  -1.700000  37.78441 101.40319   2.52216 102.44975   2.48150 101.47569  37.74375 100.42913
       1  20.09228 100.46538          9.08821  -1.700000  37.74375 100.42913   2.48150 101.47569   2.44081 100.50162  37.70306  99.45507
       1  20.05159  99.49131          9.14869  -1.700000  37.70306  99.45507   2.44081 100.50162   2.40010  99.52756  37.66235  98.48100
       1  20.01087  98.51725          9.20918  -1.700000  37.66235  98.48100   2.40010  99.52756   2.35937  98.55350  37.62162  97.50694
       1  19.97013  97.54319          9.26966  -1.700000  37.62162  97.50694   2.35937  98.55350   2.31862  97.57944  37.58087  96.53288
       1  19.92936  96.56913          9.33015  -1.700000  37.58087  96.53288   2.31862  97.57944   2.27785  96.60538  37.54010  95.55882
       1  19.88857  95.59507          9.39063  -1.700000  37.54010  95.55882   2.27785  96.60538   2.23705  95.63131  37.49930  94.58475
       1  19.84776  94.62100          9.45111  -1.700000  37.49930  94.58475   2.23705  95.63131   2.19623  94.65725  37.45848  93.61069
       1  19.80693  93.64694          9.51160  -1.700000  37.45848  93.61069   2.19623  94.65725   2.15538  93.68319  37.41763  92.63663
       1  19.76608  92.67288          9.57208  -1.700000  37.41763  92.63663   2.15538  93.68319   2.11451  92.70913  37.37676  91.66257
