\wavsamp version 5.0 (Thu May  9 10:19:35 PDT 2002)
\processing time 15:28:41 PST 05/24/2004
\character channelID = 1
| order |x_center |y_center |   wavelength   |  angle   |   x0    |   y0    |   x1    |   y1    |   x2    |   y2    |   x3    |   y3    |
| int   |  real   |  real   |    real        |   real   |  real   |  real   |  real   |  real   |  real   |  real   |  real   |  real   |
      20 120.64713 128.00022          9.89273   6.481150 122.97469 128.75873 118.29645 128.22727 118.31956 127.24172 122.99780 127.77318
      20 120.67025 127.01429          9.90034   6.481150 122.99780 127.77318 118.31956 127.24172 118.34270 126.25541 123.02094 126.78687
      20 120.69339 126.02761          9.90796   6.481150 123.02094 126.78687 118.34270 126.25541 118.36585 125.26834 123.04409 125.79980
      20 120.71655 125.04016          9.91559   6.481150 123.04409 125.79980 118.36585 125.26834 118.38901 124.28052 123.06726 124.81198
      20 120.73973 124.05195          9.92322   6.481150 123.06726 124.81198 118.38901 124.28052 118.41220 123.29193 123.09044 123.82339
      20 120.76293 123.06298          9.93085   6.481150 123.09044 123.82339 118.41220 123.29193 118.43541 122.30258 123.11365 122.83404
      20 120.78614 122.07326          9.93849   6.481150 123.11365 122.83404 118.43541 122.30258 118.45863 121.31247 123.13687 121.84393
      20 120.80937 121.08277          9.94614   6.481150 123.13687 121.84393 118.45863 121.31247 118.48187 120.32160 123.16011 120.85306
      20 120.83262 120.09151          9.95380   6.481150 123.16011 120.85306 118.48187 120.32160 118.50513 119.32997 123.18337 119.86143
      20 120.85589 119.09950          9.96146   6.481150 123.18337 119.86143 118.50513 119.32997 118.52840 118.33757 123.20665 118.86903
      20 120.87917 118.10672          9.96912   6.481150 123.20665 118.86903 118.52840 118.33757 118.55170 117.34441 123.22994 117.87587
      20 120.90247 117.11318          9.97679   6.481150 123.22994 117.87587 118.55170 117.34441 118.57501 116.35049 123.25325 116.88195
      20 120.92579 116.11887          9.98447   6.481150 123.25325 116.88195 118.57501 116.35049 118.59834 115.35580 123.27658 115.88726
      20 120.94913 115.12380          9.99215   6.481150 123.27658 115.88726 118.59834 115.35580 118.62169 114.36034 123.29993 114.89180
      20 120.97249 114.12796          9.99984   6.481150 123.29993 114.89180 118.62169 114.36034 118.64505 113.36412 123.32329 113.89558
      20 120.99586 113.13136         10.00754   6.481150 123.32329 113.89558 118.64505 113.36412 118.66844 112.36713 123.34668 112.89859
      20 121.01926 112.13399         10.01524   6.481150 123.34668 112.89859 118.66844 112.36713 118.69184 111.36938 123.37008 111.90084
      20 121.04267 111.13585         10.02295   6.481150 123.37008 111.90084 118.69184 111.36938 118.71526 110.37086 123.39350 110.90232
      20 121.06610 110.13694         10.03066   6.481150 123.39350 110.90232 118.71526 110.37086 118.73869 109.37157 123.41694 109.90302
      20 121.08954 109.13727         10.03838   6.481150 123.41694 109.90302 118.73869 109.37157 118.76215 108.37151 123.44039 108.90296
      20 121.11301 108.13682         10.04610   6.481150 123.44039 108.90296 118.76215 108.37151 118.78562 107.37068 123.46387 107.90214
      20 121.13649 107.13561         10.05383   6.481150 123.46387 107.90214 118.78562 107.37068 118.80912 106.36908 123.48736 106.90054
      20 121.15999 106.13362         10.06157   6.481150 123.48736 106.90054 118.80912 106.36908 118.83263 105.36671 123.51087 105.89817
      20 121.18351 105.13086         10.06931   6.481150 123.51087 105.89817 118.83263 105.36671 118.85615 104.36356 123.53440 104.89502
      20 121.20705 104.12734         10.07706   6.481150 123.53440 104.89502 118.85615 104.36356 118.87970 103.35965 123.55794 103.89111
      20 121.23060 103.12304         10.08482   6.481150 123.55794 103.89111 118.87970 103.35965 118.90326 102.35496 123.58151 102.88642
      20 121.25418 102.11796         10.09258   6.481150 123.58151 102.88642 118.90326 102.35496 118.92685 101.34951 123.60509 101.88096
      20 121.27777 101.11212         10.10034   6.481150 123.60509 101.88096 118.92685 101.34951 118.95045 100.34327 123.62869 100.87473
      20 121.30138 100.10550         10.10812   6.481150 123.62869 100.87473 118.95045 100.34327 118.97407  99.33626 123.65231  99.86772
      20 121.32501  99.09810         10.11589   6.481150 123.65231  99.86772 118.97407  99.33626 118.99770  98.32848 123.67594  98.85994
      20 121.34865  98.08993         10.12368   6.481150 123.67594  98.85994 118.99770  98.32848 119.02136  97.31992 123.69960  97.85138
      20 121.37232  97.08099         10.13147   6.481150 123.69960  97.85138 119.02136  97.31992 119.04503  96.31059 123.72327  96.84205
      20 121.39600  96.07126         10.13927   6.481150 123.72327  96.84205 119.04503  96.31059 119.06872  95.30048 123.74696  95.83194
      20 121.41970  95.06077         10.14707   6.481150 123.74696  95.83194 119.06872  95.30048 119.09243  94.28959 123.77067  94.82105
      20 121.44342  94.04949         10.15488   6.481150 123.77067  94.82105 119.09243  94.28959 119.11616  93.27793 123.79440  93.80939
      20 121.46715  93.03743         10.16269   6.481150 123.79440  93.80939 119.11616  93.27793 119.13991  92.26548 123.81815  92.79694
      20 121.49091  92.02460         10.17051   6.481150 123.81815  92.79694 119.13991  92.26548 119.16367  91.25226 123.84191  91.78372
      20 121.51468  91.01099         10.17834   6.481150 123.84191  91.78372 119.16367  91.25226 119.18745  90.23826 123.86570  90.76971
      20 121.53847  89.99659         10.18617   6.481150 123.86570  90.76971 119.18745  90.23826 119.21125  89.22347 123.88950  89.75493
      20 121.56229  88.98142         10.19401   6.481150 123.88950  89.75493 119.21125  89.22347 119.23507  88.20791 123.91332  88.73937
      20 121.58611  87.96546         10.20185   6.481150 123.91332  88.73937 119.23507  88.20791 119.25891  87.19156 123.93715  87.72302
      20 121.60996  86.94873         10.20970   6.481150 123.93715  87.72302 119.25891  87.19156 119.28277  86.17443 123.96101  86.70589
      20 121.63383  85.93121         10.21756   6.481150 123.96101  86.70589 119.28277  86.17443 119.30664  85.15652 123.98488  85.68798
      20 121.65771  84.91291         10.22542   6.481150 123.98488  85.68798 119.30664  85.15652 119.33053  84.13783 124.00878  84.66929
      20 121.68161  83.89382         10.23329   6.481150 124.00878  84.66929 119.33053  84.13783 119.35445  83.11835 124.03269  83.64981
      20 121.70553  82.87395         10.24117   6.481150 124.03269  83.64981 119.35445  83.11835 119.37838  82.09809 124.05662  82.62955
      20 121.72947  81.85329         10.24905   6.481150 124.05662  82.62955 119.37838  82.09809 119.40232  81.07704 124.08057  81.60850
      20 121.75343  80.83185         10.25693   6.481150 124.08057  81.60850 119.40232  81.07704 119.42629  80.05521 124.10453  80.58667
      20 121.77740  79.80963         10.26483   6.481150 124.10453  80.58667 119.42629  80.05521 119.45027  79.03259 124.12852  79.56405
      20 121.80140  78.78661         10.27273   6.481150 124.12852  79.56405 119.45027  79.03259 119.47428  78.00918 124.15252  78.54064
      20 121.82541  77.76281         10.28063   6.481150 124.15252  78.54064 119.47428  78.00918 119.49830  76.98499 124.17654  77.51645
      20 121.84944  76.73823         10.28854   6.481150 124.17654  77.51645 119.49830  76.98499 119.52234  75.96001 124.20058  76.49146
      20 121.87349  75.71285         10.29646   6.481150 124.20058  76.49146 119.52234  75.96001 119.54640  74.93423 124.22464  75.46569
      20 121.89756  74.68668         10.30438   6.481150 124.22464  75.46569 119.54640  74.93423 119.57048  73.90767 124.24872  74.43913
      20 121.92164  73.65973         10.31231   6.481150 124.24872  74.43913 119.57048  73.90767 119.59457  72.88032 124.27281  73.41178
      20 121.94575  72.63198         10.32025   6.481150 124.27281  73.41178 119.59457  72.88032 119.61869  71.85218 124.29693  72.38364
      20 121.96987  71.60345         10.32819   6.481150 124.29693  72.38364 119.61869  71.85218 119.64282  70.82325 124.32106  71.35471
      20 121.99402  70.57412         10.33614   6.481150 124.32106  71.35471 119.64282  70.82325 119.66697  69.79353 124.34521  70.32499
      20 122.01818  69.54400         10.34409   6.481150 124.34521  70.32499 119.66697  69.79353 119.69114  68.76301 124.36938  69.29447
      20 122.04236  68.51309         10.35205   6.481150 124.36938  69.29447 119.69114  68.76301 119.71533  67.73170 124.39357  68.26316
      20 122.06655  67.48138         10.36002   6.481150 124.39357  68.26316 119.71533  67.73170 119.73954  66.69960 124.41778  67.23106
      20 122.09077  66.44888         10.36799   6.481150 124.41778  67.23106 119.73954  66.69960 119.76376  65.66670 124.44200  66.19816
      20 122.11501  65.41559         10.37597   6.481150 124.44200  66.19816 119.76376  65.66670 119.78801  64.63301 124.46625  65.16447
      20 122.13926  64.38150         10.38395   6.481150 124.46625  65.16447 119.78801  64.63301 119.81227  63.59852 124.49051  64.12998
      20 122.16353  63.34661         10.39194   6.481150 124.49051  64.12998 119.81227  63.59852 119.83655  62.56324 124.51479  63.09470
      20 122.18782  62.31093         10.39994   6.481150 124.51479  63.09470 119.83655  62.56324 119.86085  61.52716 124.53909  62.05862
      20 122.21213  61.27445         10.40794   6.481150 124.53909  62.05862 119.86085  61.52716 119.88517  60.49028 124.56341  61.02174
      20 122.23646  60.23717         10.41595   6.481150 124.56341  61.02174 119.88517  60.49028 119.90951  59.45261 124.58775  59.98407
      20 122.26081  59.19910         10.42397   6.481150 124.58775  59.98407 119.90951  59.45261 119.93387  58.41413 124.61211  58.94559
      20 122.28518  58.16023         10.43199   6.481150 124.61211  58.94559 119.93387  58.41413 119.95824  57.37486 124.63648  57.90632
      20 122.30956  57.12055         10.44002   6.481150 124.63648  57.90632 119.95824  57.37486 119.98264  56.33479 124.66088  56.86625
      20 122.33396  56.08008         10.44805   6.481150 124.66088  56.86625 119.98264  56.33479 120.00705  55.29391 124.68529  55.82537
      20 122.35839  55.03881         10.45609   6.481150 124.68529  55.82537 120.00705  55.29391 120.03148  54.25224 124.70972  54.78370
      20 122.38283  53.99673         10.46414   6.481150 124.70972  54.78370 120.03148  54.25224 120.05593  53.20976 124.73417  53.74122
      20 122.40729  52.95385         10.47219   6.481150 124.73417  53.74122 120.05593  53.20976 120.08040  52.16649 124.75864  52.69794
      20 122.43177  51.91017         10.48025   6.481150 124.75864  52.69794 120.08040  52.16649 120.10489  51.12240 124.78313  51.65386
      20 122.45626  50.86569         10.48831   6.481150 124.78313  51.65386 120.10489  51.12240 120.12940  50.07752 124.80764  50.60898
      20 122.48078  49.82041         10.49639   6.481150 124.80764  50.60898 120.12940  50.07752 120.15392  49.03183 124.83216  49.56329
      20 122.50532  48.77432         10.50446   6.481150 124.83216  49.56329 120.15392  49.03183 120.17847  47.98534 124.85671  48.51680
      20 122.52987  47.72742         10.51255   6.481150 124.85671  48.51680 120.17847  47.98534 120.20303  46.93804 124.88127  47.46950
      20 122.55444  46.67972         10.52064   6.481150 124.88127  47.46950 120.20303  46.93804 120.22761  45.88994 124.90586  46.42140
      20 122.57903  45.63121         10.52873   6.481150 124.90586  46.42140 120.22761  45.88994 120.25221  44.84103 124.93046  45.37249
      20 122.60365  44.58190         10.53683   6.481150 124.93046  45.37249 120.25221  44.84103 120.27683  43.79131 124.95508  44.32277
      20 122.62828  43.53178         10.54494   6.481150 124.95508  44.32277 120.27683  43.79131 120.30147  42.74078 124.97972  43.27224
      20 122.65292  42.48085         10.55306   6.481150 124.97972  43.27224 120.30147  42.74078 120.32613  41.68945 125.00437  42.22091
      20 122.67759  41.42911         10.56118   6.481150 125.00437  42.22091 120.32613  41.68945 120.35081  40.63731 125.02905  41.16877
      20 122.70228  40.37656         10.56930   6.481150 125.02905  41.16877 120.35081  40.63731 120.37551  39.58435 125.05375  40.11581
      20 122.72698  39.32320         10.57744   6.481150 125.05375  40.11581 120.37551  39.58435 120.40022  38.53059 125.07846  39.06205
      20 122.75171  38.26903         10.58558   6.481150 125.07846  39.06205 120.40022  38.53059 120.42496  37.47602 125.10320  38.00748
      20 122.77645  37.21405         10.59372   6.481150 125.10320  38.00748 120.42496  37.47602 120.44971  36.42063 125.12795  36.95209
      20 122.80122  36.15826         10.60188   6.481150 125.12795  36.95209 120.44971  36.42063 120.47448  35.36443 125.15272  35.89589
      20 122.82600  35.10166         10.61003   6.481150 125.15272  35.89589 120.47448  35.36443 120.49927  34.30742 125.17752  34.83888
      20 122.85080  34.04424         10.61820   6.481150 125.17752  34.83888 120.49927  34.30742 120.52408  33.24960 125.20233  33.78106
      20 122.87562  32.98601         10.62637   6.481150 125.20233  33.78106 120.52408  33.24960 120.54891  32.19096 125.22716  32.72242
      20 122.90046  31.92696         10.63455   6.481150 125.22716  32.72242 120.54891  32.19096 120.57376  31.13151 125.25200  31.66297
      20 122.92532  30.86710         10.64273   6.481150 125.25200  31.66297 120.57376  31.13151 120.59863  30.07124 125.27687  30.60270
      20 122.95019  29.80643         10.65092   6.481150 125.27687  30.60270 120.59863  30.07124 120.62352  29.01016 125.30176  29.54162
      19 113.51529 127.54015         10.38395   6.669800 115.84473 128.28287 111.16827 127.73601 111.18585 126.79742 115.86231 127.34428
      19 113.53288 126.60120         10.39194   6.669800 115.86231 127.34428 111.18585 126.79742 111.20344 125.85811 115.87991 126.40497
      19 113.55048 125.66153         10.39994   6.669800 115.87991 126.40497 111.20344 125.85811 111.22105 124.91808 115.89752 125.46494
      19 113.56809 124.72113         10.40794   6.669800 115.89752 125.46494 111.22105 124.91808 111.23867 123.97733 115.91514 124.52418
      19 113.58572 123.78002         10.41595   6.669800 115.91514 124.52418 111.23867 123.97733 111.25631 123.03585 115.93277 123.58271
      19 113.60336 122.83817         10.42397   6.669800 115.93277 123.58271 111.25631 123.03585 111.27395 122.09364 115.95042 122.64050
      19 113.62102 121.89561         10.43199   6.669800 115.95042 122.64050 111.27395 122.09364 111.29162 121.15071 115.96808 121.69757
      19 113.63869 120.95231         10.44002   6.669800 115.96808 121.69757 111.29162 121.15071 111.30929 120.20706 115.98576 120.75392
      19 113.65637 120.00830         10.44805   6.669800 115.98576 120.75392 111.30929 120.20706 111.32698 119.26268 116.00345 119.80954
      19 113.67407 119.06355         10.45609   6.669800 116.00345 119.80954 111.32698 119.26268 111.34469 118.31757 116.02115 118.86443
      19 113.69178 118.11808         10.46414   6.669800 116.02115 118.86443 111.34469 118.31757 111.36240 117.37173 116.03887 117.91859
      19 113.70950 117.17188         10.47219   6.669800 116.03887 117.91859 111.36240 117.37173 111.38013 116.42517 116.05660 116.97203
      19 113.72724 116.22495         10.48025   6.669800 116.05660 116.97203 111.38013 116.42517 111.39788 115.47788 116.07434 116.02474
      19 113.74499 115.27730         10.48831   6.669800 116.07434 116.02474 111.39788 115.47788 111.41563 114.52986 116.09210 115.07672
      19 113.76275 114.32891         10.49639   6.669800 116.09210 115.07672 111.41563 114.52986 111.43341 113.58111 116.10987 114.12797
      19 113.78053 113.37980         10.50446   6.669800 116.10987 114.12797 111.43341 113.58111 111.45119 112.63163 116.12766 113.17849
      19 113.79832 112.42995         10.51255   6.669800 116.12766 113.17849 111.45119 112.63163 111.46899 111.68142 116.14546 112.22828
      19 113.81613 111.47938         10.52064   6.669800 116.14546 112.22828 111.46899 111.68142 111.48680 110.73048 116.16327 111.27734
      19 113.83395 110.52807         10.52873   6.669800 116.16327 111.27734 111.48680 110.73048 111.50463 109.77880 116.18109 110.32566
      19 113.85178 109.57603         10.53683   6.669800 116.18109 110.32566 111.50463 109.77880 111.52247 108.82640 116.19893 109.37326
      19 113.86963 108.62326         10.54494   6.669800 116.19893 109.37326 111.52247 108.82640 111.54032 107.87326 116.21679 108.42012
      19 113.88749 107.66975         10.55306   6.669800 116.21679 108.42012 111.54032 107.87326 111.55819 106.91939 116.23465 107.46625
      19 113.90536 106.71551         10.56118   6.669800 116.23465 107.46625 111.55819 106.91939 111.57607 105.96478 116.25254 106.51164
      19 113.92325 105.76054         10.56930   6.669800 116.25254 106.51164 111.57607 105.96478 111.59396 105.00944 116.27043 105.55630
      19 113.94115 104.80483         10.57744   6.669800 116.27043 105.55630 111.59396 105.00944 111.61187 104.05336 116.28834 104.60022
      19 113.95907 103.84839         10.58558   6.669800 116.28834 104.60022 111.61187 104.05336 111.62979 103.09655 116.30626 103.64341
      19 113.97700 102.89121         10.59372   6.669800 116.30626 103.64341 111.62979 103.09655 111.64773 102.13900 116.32420 102.68586
      19 113.99494 101.93329         10.60188   6.669800 116.32420 102.68586 111.64773 102.13900 111.66568 101.18072 116.34215 101.72758
      19 114.01290 100.97464         10.61003   6.669800 116.34215 101.72758 111.66568 101.18072 111.68364 100.22170 116.36011 100.76856
      19 114.03087 100.01525         10.61820   6.669800 116.36011 100.76856 111.68364 100.22170 111.70162  99.26194 116.37809  99.80880
      19 114.04885  99.05512         10.62637   6.669800 116.37809  99.80880 111.70162  99.26194 111.71961  98.30144 116.39608  98.84830
      19 114.06685  98.09425         10.63455   6.669800 116.39608  98.84830 111.71961  98.30144 111.73762  97.34020 116.41409  97.88706
      19 114.08486  97.13264         10.64273   6.669800 116.41409  97.88706 111.73762  97.34020 111.75564  96.37822 116.43210  96.92508
      19 114.10289  96.17029         10.65092   6.669800 116.43210  96.92508 111.75564  96.37822 111.77367  95.41550 116.45014  95.96236
      19 114.12093  95.20721         10.65912   6.669800 116.45014  95.96236 111.77367  95.41550 111.79172  94.45205 116.46818  94.99891
      19 114.13898  94.24338         10.66732   6.669800 116.46818  94.99891 111.79172  94.45205 111.80978  93.48785 116.48624  94.03471
      19 114.15705  93.27880         10.67553   6.669800 116.48624  94.03471 111.80978  93.48785 111.82785  92.52290 116.50432  93.06976
      19 114.17513  92.31349         10.68374   6.669800 116.50432  93.06976 111.82785  92.52290 111.84594  91.55722 116.52241  92.10408
      19 114.19323  91.34743         10.69196   6.669800 116.52241  92.10408 111.84594  91.55722 111.86404  90.59079 116.54051  91.13765
      19 114.21133  90.38064         10.70019   6.669800 116.54051  91.13765 111.86404  90.59079 111.88216  89.62362 116.55863  90.17048
      19 114.22946  89.41309         10.70843   6.669800 116.55863  90.17048 111.88216  89.62362 111.90029  88.65570 116.57676  89.20256
      19 114.24760  88.44480         10.71667   6.669800 116.57676  89.20256 111.90029  88.65570 111.91843  87.68704 116.59490  88.23390
      19 114.26575  87.47577         10.72491   6.669800 116.59490  88.23390 111.91843  87.68704 111.93659  86.71764 116.61306  87.26450
      19 114.28391  86.50599         10.73317   6.669800 116.61306  87.26450 111.93659  86.71764 111.95476  85.74748 116.63123  86.29434
      19 114.30209  85.53547         10.74143   6.669800 116.63123  86.29434 111.95476  85.74748 111.97295  84.77659 116.64942  85.32345
      19 114.32028  84.56419         10.74969   6.669800 116.64942  85.32345 111.97295  84.77659 111.99115  83.80494 116.66762  84.35180
