\wavsamp table produced on 2005 Sep 13 for S13.0
\processing time 10:10:58 PST 09/13/2005
\wavsamp software version 5.1 (Wed Apr 20 08:45:04 PDT 2005)
\character channelID = 3
| order |x_center |y_center |   wavelength   |  angle   |   x0    |   y0    |   x1    |   y1    |   x2    |   y2    |   x3    |   y3    |
| int   |  real   |  real   |    real        |   real   |  real   |  real   |  real   |  real   |  real   |  real   |  real   |  real   |
      20   7.80424   0.54536         18.75110   0.700000  10.15080   0.09765   5.48448   0.04064   5.45769   0.99328  10.12401   1.05030
      20   7.77745   1.49884         18.76673   0.700000  10.12401   1.05030   5.45769   0.99328   5.43088   1.94761  10.09720   2.00462
      20   7.75063   2.45400         18.78238   0.700000  10.09720   2.00462   5.43088   1.94761   5.40405   2.90361  10.07037   2.96062
      20   7.72379   3.41085         18.79804   0.700000  10.07037   2.96062   5.40405   2.90361   5.37720   3.86129  10.04352   3.91830
      20   7.69692   4.36937         18.81371   0.700000  10.04352   3.91830   5.37720   3.86129   5.35033   4.82066  10.01664   4.87767
      20   7.67004   5.32958         18.82939   0.700000  10.01664   4.87767   5.35033   4.82066   5.32343   5.78171   9.98975   5.83873
      20   7.64313   6.29148         18.84509   0.700000   9.98975   5.83873   5.32343   5.78171   5.29651   6.74446   9.96283   6.80147
      20   7.61620   7.25507         18.86080   0.700000   9.96283   6.80147   5.29651   6.74446   5.26957   7.70890   9.93589   7.76591
      20   7.58924   8.22036         18.87652   0.700000   9.93589   7.76591   5.26957   7.70890   5.24260   8.67503   9.90892   8.73204
      20   7.56227   9.18734         18.89226   0.700000   9.90892   8.73204   5.24260   8.67503   5.21561   9.64286   9.88193   9.69988
      20   7.53527  10.15603         18.90801   0.700000   9.88193   9.69988   5.21561   9.64286   5.18861  10.61240   9.85492  10.66941
      20   7.50825  11.12641         18.92378   0.700000   9.85492  10.66941   5.18861  10.61240   5.16157  11.58364   9.82789  11.64065
      20   7.48120  12.09851         18.93955   0.700000   9.82789  11.64065   5.16157  11.58364   5.13452  12.55659   9.80084  12.61360
      20   7.45414  13.07231         18.95534   0.700000   9.80084  12.61360   5.13452  12.55659   5.10744  13.53124   9.77376  13.58826
      20   7.42705  14.04782         18.97114   0.700000   9.77376  13.58826   5.10744  13.53124   5.08034  14.50761   9.74666  14.56463
      20   7.39994  15.02505         18.98696   0.700000   9.74666  14.56463   5.08034  14.50761   5.05322  15.48570   9.71954  15.54272
      20   7.37281  16.00400         19.00279   0.700000   9.71954  15.54272   5.05322  15.48570   5.02607  16.46551   9.69239  16.52252
      20   7.34565  16.98467         19.01863   0.700000   9.69239  16.52252   5.02607  16.46551   4.99891  17.44704   9.66522  17.50405
      20   7.31847  17.96706         19.03449   0.700000   9.66522  17.50405   4.99891  17.44704   4.97172  18.43029   9.63803  18.48731
      20   7.29127  18.95118         19.05036   0.700000   9.63803  18.48731   4.97172  18.43029   4.94450  19.41528   9.61082  19.47229
      20   7.26404  19.93703         19.06624   0.700000   9.61082  19.47229   4.94450  19.41528   4.91727  20.40199   9.58359  20.45900
      20   7.23680  20.92461         19.08213   0.700000   9.58359  20.45900   4.91727  20.40199   4.89001  21.39044   9.55633  21.44745
      20   7.20953  21.91393         19.09804   0.700000   9.55633  21.44745   4.89001  21.39044   4.86273  22.38063   9.52905  22.43764
      20   7.18223  22.90498         19.11396   0.700000   9.52905  22.43764   4.86273  22.38063   4.83542  23.37255   9.50174  23.42956
      20   7.15492  23.89778         19.12990   0.700000   9.50174  23.42956   4.83542  23.37255   4.80810  24.36622   9.47441  24.42323
      20   7.12758  24.89232         19.14585   0.700000   9.47441  24.42323   4.80810  24.36622   4.78075  25.36164   9.44707  25.41865
      20   7.10022  25.88861         19.16181   0.700000   9.44707  25.41865   4.78075  25.36164   4.75337  26.35880   9.41969  26.41581
      20   7.07284  26.88665         19.17778   0.700000   9.41969  26.41581   4.75337  26.35880   4.72598  27.35771   9.39230  27.41473
      20   7.04543  27.88644         19.19377   0.700000   9.39230  27.41473   4.72598  27.35771   4.69856  28.35839   9.36488  28.41540
      20   7.01800  28.88799         19.20977   0.700000   9.36488  28.41540   4.69856  28.35839   4.67112  29.36081   9.33744  29.41783
      20   6.99055  29.89130         19.22579   0.700000   9.33744  29.41783   4.67112  29.36081   4.64366  30.36500   9.30998  30.42202
      20   6.96307  30.89637         19.24181   0.700000   9.30998  30.42202   4.64366  30.36500   4.61617  31.37096   9.28249  31.42797
      20   6.93558  31.90321         19.25786   0.700000   9.28249  31.42797   4.61617  31.37096   4.58866  32.37868   9.25498  32.43569
      20   6.90805  32.91181         19.27391   0.700000   9.25498  32.43569   4.58866  32.37868   4.56113  33.38817   9.22745  33.44518
      20   6.88051  33.92219         19.28998   0.700000   9.22745  33.44518   4.56113  33.38817   4.53357  34.39943   9.19989  34.45645
      20   6.85294  34.93434         19.30606   0.700000   9.19989  34.45645   4.53357  34.39943   4.50600  35.41247   9.17231  35.46949
      20   6.82535  35.94827         19.32216   0.700000   9.17231  35.46949   4.50600  35.41247   4.47839  36.42729   9.14471  36.48431
      20   6.79774  36.96398         19.33826   0.700000   9.14471  36.48431   4.47839  36.42729   4.45077  37.44390   9.11709  37.50091
      20   6.77011  37.98148         19.35439   0.700000   9.11709  37.50091   4.45077  37.44390   4.42312  38.46228   9.08944  38.51930
      20   6.74245  39.00076         19.37052   0.700000   9.08944  38.51930   4.42312  38.46228   4.39545  39.48246   9.06177  39.53947
      20   6.71476  40.02183         19.38667   0.700000   9.06177  39.53947   4.39545  39.48246   4.36776  40.50442   9.03408  40.56144
      20   6.68706  41.04469         19.40283   0.700000   9.03408  40.56144   4.36776  40.50442   4.34004  41.52819   9.00636  41.58520
      20   6.65933  42.06935         19.41901   0.700000   9.00636  41.58520   4.34004  41.52819   4.31230  42.55374   8.97862  42.61076
      20   6.63158  43.09581         19.43520   0.700000   8.97862  42.61076   4.31230  42.55374   4.28454  43.58110   8.95086  43.63812
      20   6.60381  44.12407         19.45140   0.700000   8.95086  43.63812   4.28454  43.58110   4.25675  44.61027   8.92307  44.66728
      20   6.57601  45.15414         19.46762   0.700000   8.92307  44.66728   4.25675  44.61027   4.22894  45.64124   8.89526  45.69825
      20   6.54819  46.18601         19.48385   0.700000   8.89526  45.69825   4.22894  45.64124   4.20111  46.67401   8.86743  46.73103
      20   6.52034  47.21970         19.50009   0.700000   8.86743  46.73103   4.20111  46.67401   4.17326  47.70861   8.83958  47.76562
      20   6.49248  48.25520         19.51635   0.700000   8.83958  47.76562   4.17326  47.70861   4.14538  48.74501   8.81170  48.80203
      20   6.46459  49.29252         19.53262   0.700000   8.81170  48.80203   4.14538  48.74501   4.11748  49.78324   8.78379  49.84025
      20   6.43667  50.33165         19.54890   0.700000   8.78379  49.84025   4.11748  49.78324   4.08955  50.82329   8.75587  50.88030
      20   6.40874  51.37262         19.56520   0.700000   8.75587  50.88030   4.08955  50.82329   4.06160  51.86517   8.72792  51.92218
      20   6.38078  52.41540         19.58151   0.700000   8.72792  51.92218   4.06160  51.86517   4.03363  52.90887   8.69995  52.96588
      20   6.35279  53.46002         19.59783   0.700000   8.69995  52.96588   4.03363  52.90887   4.00564  53.95441   8.67195  54.01142
      20   6.32479  54.50648         19.61417   0.700000   8.67195  54.01142   4.00564  53.95441   3.97762  55.00177   8.64394  55.05879
      20   6.29676  55.55476         19.63053   0.700000   8.64394  55.05879   3.97762  55.00177   3.94958  56.05098   8.61589  56.10799
      20   6.26870  56.60489         19.64689   0.700000   8.61589  56.10799   3.94958  56.05098   3.92151  57.10203   8.58783  57.15904
      20   6.24063  57.65686         19.66327   0.700000   8.58783  57.15904   3.92151  57.10203   3.89342  58.15492   8.55974  58.21194
      20   6.21253  58.71068         19.67966   0.700000   8.55974  58.21194   3.89342  58.15492   3.86531  59.20966   8.53163  59.26668
      20   6.18440  59.76634         19.69607   0.700000   8.53163  59.26668   3.86531  59.20966   3.83717  60.26625   8.50349  60.32327
      20   6.15625  60.82386         19.71249   0.700000   8.50349  60.32327   3.83717  60.26625   3.80902  61.32470   8.47533  61.38171
      20   6.12808  61.88323         19.72892   0.700000   8.47533  61.38171   3.80902  61.32470   3.78083  62.38500   8.44715  62.44201
      20   6.09989  62.94446         19.74537   0.700000   8.44715  62.44201   3.78083  62.38500   3.75263  63.44716   8.41895  63.50417
      20   6.07167  64.00756         19.76183   0.700000   8.41895  63.50417   3.75263  63.44716   3.72440  64.51118   8.39072  64.56820
      20   6.04343  65.07251         19.77831   0.700000   8.39072  64.56820   3.72440  64.51118   3.69615  65.57707   8.36246  65.63409
      20   6.01517  66.13934         19.79480   0.700000   8.36246  65.63409   3.69615  65.57707   3.66787  66.64483   8.33419  66.70185
      20   5.98688  67.20803         19.81130   0.700000   8.33419  66.70185   3.66787  66.64483   3.63957  67.71447   8.30589  67.77148
      20   5.95857  68.27860         19.82782   0.700000   8.30589  67.77148   3.63957  67.71447   3.61125  68.78597   8.27756  68.84299
      20   5.93023  69.35105         19.84435   0.700000   8.27756  68.84299   3.61125  68.78597   3.58290  69.85936   8.24922  69.91637
      20   5.90187  70.42538         19.86089   0.700000   8.24922  69.91637   3.58290  69.85936   3.55453  70.93463   8.22085  70.99164
      20   5.87349  71.50159         19.87745   0.700000   8.22085  70.99164   3.55453  70.93463   3.52613  72.01179   8.19245  72.06880
      20   5.84508  72.57969         19.89402   0.700000   8.19245  72.06880   3.52613  72.01179   3.49771  73.09083   8.16403  73.14784
      20   5.81665  73.65968         19.91060   0.700000   8.16403  73.14784   3.49771  73.09083   3.46927  74.17177   8.13559  74.22878
      20   5.78820  74.74157         19.92720   0.700000   8.13559  74.22878   3.46927  74.17177   3.44081  75.25460   8.10713  75.31161
      20   5.75972  75.82535         19.94382   0.700000   8.10713  75.31161   3.44081  75.25460   3.41232  76.33933   8.07864  76.39634
      20   5.73122  76.91103         19.96044   0.700000   8.07864  76.39634   3.41232  76.33933   3.38380  77.42596   8.05012  77.48297
      20   5.70270  77.99861         19.97708   0.700000   8.05012  77.48297   3.38380  77.42596   3.35527  78.51450   8.02159  78.57151
      20   5.67415  79.08810         19.99374   0.700000   8.02159  78.57151   3.35527  78.51450   3.32671  79.60494   7.99303  79.66195
      20   5.64557  80.17950         20.01041   0.700000   7.99303  79.66195   3.32671  79.60494   3.29812  80.69730   7.96444  80.75431
      20   5.61698  81.27281         20.02709   0.700000   7.96444  80.75431   3.29812  80.69730   3.26951  81.79157   7.93583  81.84858
      20   5.58836  82.36804         20.04378   0.700000   7.93583  81.84858   3.26951  81.79157   3.24088  82.88776   7.90720  82.94477
      20   5.55971  83.46519         20.06049   0.700000   7.90720  82.94477   3.24088  82.88776   3.21223  83.98587   7.87854  84.04288
      20   5.53105  84.56427         20.07722   0.700000   7.87854  84.04288   3.21223  83.98587   3.18355  85.08590   7.84986  85.14292
      20   5.50235  85.66526         20.09396   0.700000   7.84986  85.14292   3.18355  85.08590   3.15484  86.18787   7.82116  86.24488
      20   5.47364  86.76819         20.11071   0.700000   7.82116  86.24488   3.15484  86.18787   3.12612  87.29176   7.79243  87.34877
      20   5.44490  87.87305         20.12747   0.700000   7.79243  87.34877   3.12612  87.29176   3.09736  88.39759   7.76368  88.45460
      20   5.41613  88.97985         20.14425   0.700000   7.76368  88.45460   3.09736  88.39759   3.06859  89.50535   7.73491  89.56237
      20   5.38735  90.08859         20.16105   0.700000   7.73491  89.56237   3.06859  89.50535   3.03979  90.61506   7.70611  90.67207
      20   5.35854  91.19926         20.17786   0.700000   7.70611  90.67207   3.03979  90.61506   3.01096  91.72671   7.67728  91.78372
      20   5.32970  92.31189         20.19468   0.700000   7.67728  91.78372   3.01096  91.72671   2.98212  92.84031   7.64844  92.89732
      20   5.30084  93.42646         20.21151   0.700000   7.64844  92.89732   2.98212  92.84031   2.95325  93.95586   7.61956  94.01287
      20   5.27196  94.54299         20.22836   0.700000   7.61956  94.01287   2.95325  93.95586   2.92435  95.07336   7.59067  95.13038
      20   5.24305  95.66147         20.24523   0.700000   7.59067  95.13038   2.92435  95.07336   2.89543  96.19283   7.56175  96.24984
      20   5.21412  96.78192         20.26211   0.700000   7.56175  96.24984   2.89543  96.19283   2.86649  97.31425   7.53280  97.37126
      20   5.18516  97.90432         20.27900   0.700000   7.53280  97.37126   2.86649  97.31425   2.83752  98.43764   7.50384  98.49465
      20   5.15618  99.02869         20.29590   0.700000   7.50384  98.49465   2.83752  98.43764   2.80853  99.56299   7.47484  99.62001
      20   5.12718 100.15503         20.31282   0.700000   7.47484  99.62001   2.80853  99.56299   2.77951 100.69032   7.44583 100.74733
      20   5.09815 101.28335         20.32976   0.700000   7.44583 100.74733   2.77951 100.69032   2.75047 101.81962   7.41679 101.87663
      20   5.06909 102.41364         20.34671   0.700000   7.41679 101.87663   2.75047 101.81962   2.72140 102.95090   7.38772 103.00791
      20   5.04002 103.54591         20.36367   0.700000   7.38772 103.00791   2.72140 102.95090   2.69231 104.08416   7.35863 104.14117
      20   5.01092 104.68016         20.38065   0.700000   7.35863 104.14117   2.69231 104.08416   2.66320 105.21940   7.32952 105.27642
      20   4.98179 105.81640         20.39764   0.700000   7.32952 105.27642   2.66320 105.21940   2.63406 106.35664   7.30038 106.41365
      20   4.95264 106.95462         20.41464   0.700000   7.30038 106.41365   2.63406 106.35664   2.60490 107.49586   7.27122 107.55287
      20   4.92347 108.09484         20.43166   0.700000   7.27122 107.55287   2.60490 107.49586   2.57572 108.63708   7.24203 108.69409
      20   4.89427 109.23706         20.44870   0.700000   7.24203 108.69409   2.57572 108.63708   2.54650 109.78029   7.21282 109.83731
      20   4.86505 110.38128         20.46574   0.700000   7.21282 109.83731   2.54650 109.78029   2.51727 110.92551   7.18359 110.98253
      20   4.83580 111.52750         20.48281   0.700000   7.18359 110.98253   2.51727 110.92551   2.48801 112.07274   7.15433 112.12975
      20   4.80653 112.67573         20.49988   0.700000   7.15433 112.12975   2.48801 112.07274   2.45873 113.22197   7.12505 113.27898
      20   4.77723 113.82596         20.51697   0.700000   7.12505 113.27898   2.45873 113.22197   2.42942 114.37321   7.09574 114.43022
      20   4.74791 114.97822         20.53408   0.700000   7.09574 114.43022   2.42942 114.37321   2.40009 115.52647   7.06640 115.58348
      20   4.71857 116.13248         20.55119   0.700000   7.06640 115.58348   2.40009 115.52647   2.37073 116.68175   7.03705 116.73876
      20   4.68920 117.28877         20.56833   0.700000   7.03705 116.73876   2.37073 116.68175   2.34135 117.83905   7.00767 117.89606
      20   4.65980 118.44709         20.58548   0.700000   7.00767 117.89606   2.34135 117.83905   2.31194 118.99837   6.97826 119.05539
      20   4.63039 119.60743         20.60264   0.700000   6.97826 119.05539   2.31194 118.99837   2.28251 120.15973   6.94883 120.21674
      20   4.60094 120.76980         20.61981   0.700000   6.94883 120.21674   2.28251 120.15973   2.25306 121.32312   6.91937 121.38013
      20   4.57148 121.93420         20.63700   0.700000   6.91937 121.38013   2.25306 121.32312   2.22358 122.48854   6.88990 122.54555
      20   4.54198 123.10064         20.65421   0.700000   6.88990 122.54555   2.22358 122.48854   2.19407 123.65600   6.86039 123.71302
      20   4.51247 124.26913         20.67143   0.700000   6.86039 123.71302   2.19407 123.65600   2.16454 124.82551   6.83086 124.88252
      20   4.48293 125.43966         20.68866   0.700000   6.83086 124.88252   2.16454 124.82551   2.13499 125.99706   6.80131 126.05407
      20   4.45336 126.61223         20.70591   0.700000   6.80131 126.05407   2.13499 125.99706   2.10541 127.17066   6.77173 127.22768
      20   4.42377 127.78686         20.72317   0.700000   6.77173 127.22768   2.10541 127.17066   2.07581 128.34632   6.74213 128.40333
      19  14.68378   0.88503         19.76183   1.920000  17.02487   0.47159  12.36083   0.31523  12.34268   1.29870  17.00673   1.45505
      19  14.66562   1.86937         19.77831   1.920000  17.00673   1.45505  12.34268   1.29870  12.32451   2.28393  16.98856   2.44028
      19  14.64745   2.85548         19.79480   1.920000  16.98856   2.44028  12.32451   2.28393  12.30634   3.27092  16.97038   3.42727
      19  14.62926   3.84335         19.81130   1.920000  16.97038   3.42727  12.30634   3.27092  12.28814   4.25967  16.95219   4.41602
      19  14.61106   4.83299         19.82782   1.920000  16.95219   4.41602  12.28814   4.25967  12.26993   5.25019  16.93398   5.40654
      19  14.59284   5.82439         19.84435   1.920000  16.93398   5.40654  12.26993   5.25019  12.25171   6.24248  16.91575   6.39883
      19  14.57461   6.81757         19.86089   1.920000  16.91575   6.39883  12.25171   6.24248  12.23347   7.23655  16.89751   7.39290
      19  14.55636   7.81253         19.87745   1.920000  16.89751   7.39290  12.23347   7.23655  12.21521   8.23239  16.87926   8.38874
      19  14.53810   8.80926         19.89402   1.920000  16.87926   8.38874  12.21521   8.23239  12.19694   9.23002  16.86099   9.38637
      19  14.51982   9.80778         19.91060   1.920000  16.86099   9.38637  12.19694   9.23002  12.17866  10.22942  16.84270  10.38578
      19  14.50153  10.80808         19.92720   1.920000  16.84270  10.38578  12.17866  10.22942  12.16035  11.23062  16.82440  11.38697
      19  14.48322  11.81016         19.94382   1.920000  16.82440  11.38697  12.16035  11.23062  12.14204  12.23360  16.80609  12.38995
      19  14.46490  12.81404         19.96044   1.920000  16.80609  12.38995  12.14204  12.23360  12.12371  13.23837  16.78775  13.39473
      19  14.44656  13.81972         19.97708   1.920000  16.78775  13.39473  12.12371  13.23837  12.10536  14.24495  16.76941  14.40130
      19  14.42820  14.82719         19.99374   1.920000  16.76941  14.40130  12.10536  14.24495  12.08700  15.25332  16.75105  15.40967
      19  14.40983  15.83646         20.01041   1.920000  16.75105  15.40967  12.08700  15.25332  12.06862  16.26349  16.73267  16.41984
      19  14.39145  16.84753         20.02709   1.920000  16.73267  16.41984  12.06862  16.26349  12.05023  17.27546  16.71428  17.43182
      19  14.37305  17.86041         20.04378   1.920000  16.71428  17.43182  12.05023  17.27546  12.03182  18.28925  16.69587  18.44560
      19  14.35463  18.87510         20.06049   1.920000  16.69587  18.44560  12.03182  18.28925  12.01340  19.30484  16.67744  19.46120
      19  14.33620  19.89160         20.07722   1.920000  16.67744  19.46120  12.01340  19.30484  11.99496  20.32225  16.65901  20.47861
      19  14.31775  20.90992         20.09396   1.920000  16.65901  20.47861  11.99496  20.32225  11.97650  21.34148  16.64055  21.49783
