\wavsamp version 5.0 (Thu May  9 10:19:35 PDT 2002)
\processing time 22:08:08 PST 11/20/2003
\character channelID = 3
| order |x_center |y_center |   wavelength   |  angle   |   x0    |   y0    |   x1    |   y1    |   x2    |   y2    |   x3    |   y3    |
| int   |  real   |  real   |    real        |   real   |  real   |  real   |  real   |  real   |  real   |  real   |  real   |  real   |
      20   8.38430   0.00005         18.72780   0.700000  11.39774  -0.53109   5.39818  -0.60440   5.37087   0.53118  11.37042   0.60449
      20   8.35698   1.13610         18.74341   0.700000  11.37042   0.60449   5.37087   0.53118   5.34354   1.66771  11.34309   1.74101
      20   8.32963   2.27310         18.75904   0.700000  11.34309   1.74101   5.34354   1.66771   5.31618   2.80518  11.31573   2.87848
      20   8.30226   3.41104         18.77468   0.700000  11.31573   2.87848   5.31618   2.80518   5.28880   3.94360  11.28835   4.01690
      20   8.27487   4.54994         18.79033   0.700000  11.28835   4.01690   5.28880   3.94360   5.26139   5.08297  11.26095   5.15627
      20   8.24746   5.68978         18.80600   0.700000  11.26095   5.15627   5.26139   5.08297   5.23397   6.22329  11.23352   6.29659
      20   8.22002   6.83058         18.82167   0.700000  11.23352   6.29659   5.23397   6.22329   5.20652   7.36456  11.20607   7.43786
      20   8.19256   7.97232         18.83736   0.700000  11.20607   7.43786   5.20652   7.36456   5.17904   8.50678  11.17860   8.58009
      20   8.16507   9.11502         18.85307   0.700000  11.17860   8.58009   5.17904   8.50678   5.15155   9.64996  11.15110   9.72326
      20   8.13757  10.25867         18.86879   0.700000  11.15110   9.72326   5.15155   9.64996   5.12403  10.79409  11.12358  10.86739
      20   8.11004  11.40328         18.88452   0.700000  11.12358  10.86739   5.12403  10.79409   5.09649  11.93917  11.09604  12.01247
      20   8.08248  12.54884         18.90026   0.700000  11.09604  12.01247   5.09649  11.93917   5.06892  13.08520  11.06848  13.15851
      20   8.05491  13.69535         18.91602   0.700000  11.06848  13.15851   5.06892  13.08520   5.04134  14.23220  11.04089  14.30550
      20   8.02731  14.84282         18.93179   0.700000  11.04089  14.30550   5.04134  14.23220   5.01373  15.38014  11.01328  15.45345
      20   7.99969  15.99125         18.94757   0.700000  11.01328  15.45345   5.01373  15.38014   4.98609  16.52905  10.98565  16.60235
      20   7.97204  17.14063         18.96337   0.700000  10.98565  16.60235   4.98609  16.52905   4.95844  17.67891  10.95799  17.75221
      20   7.94437  18.29097         18.97918   0.700000  10.95799  17.75221   4.95844  17.67891   4.93076  18.82973  10.93031  18.90303
      20   7.91668  19.44227         18.99500   0.700000  10.93031  18.90303   4.93076  18.82973   4.90306  19.98151  10.90261  20.05482
      20   7.88897  20.59453         19.01083   0.700000  10.90261  20.05482   4.90306  19.98151   4.87533  21.13425  10.87488  21.20756
      20   7.86123  21.74776         19.02668   0.700000  10.87488  21.20756   4.87533  21.13425   4.84758  22.28796  10.84713  22.36126
      20   7.83347  22.90194         19.04255   0.700000  10.84713  22.36126   4.84758  22.28796   4.81981  23.44262  10.81936  23.51592
      20   7.80569  24.05709         19.05842   0.700000  10.81936  23.51592   4.81981  23.44262   4.79202  24.59825  10.79157  24.67155
      20   7.77788  25.21319         19.07431   0.700000  10.79157  24.67155   4.79202  24.59825   4.76420  25.75484  10.76375  25.82814
      20   7.75005  26.37027         19.09021   0.700000  10.76375  25.82814   4.76420  25.75484   4.73636  26.91239  10.73591  26.98569
      20   7.72220  27.52830         19.10613   0.700000  10.73591  26.98569   4.73636  26.91239   4.70849  28.07091  10.70804  28.14421
      20   7.69432  28.68731         19.12206   0.700000  10.70804  28.14421   4.70849  28.07091   4.68060  29.23040  10.68016  29.30370
      20   7.66643  29.84728         19.13800   0.700000  10.68016  29.30370   4.68060  29.23040   4.65269  30.39085  10.65225  30.46415
      20   7.63850  31.00821         19.15395   0.700000  10.65225  30.46415   4.65269  30.39085   4.62476  31.55227  10.62431  31.62557
      20   7.61056  32.17012         19.16992   0.700000  10.62431  31.62557   4.62476  31.55227   4.59680  32.71466  10.59635  32.78796
      20   7.58259  33.33299         19.18590   0.700000  10.59635  32.78796   4.59680  32.71466   4.56882  33.87802  10.56837  33.95132
      20   7.55460  34.49683         19.20190   0.700000  10.56837  33.95132   4.56882  33.87802   4.54082  35.04234  10.54037  35.11564
      20   7.52658  35.66164         19.21790   0.700000  10.54037  35.11564   4.54082  35.04234   4.51279  36.20764  10.51234  36.28094
      20   7.49854  36.82743         19.23393   0.700000  10.51234  36.28094   4.51279  36.20764   4.48474  37.37391  10.48429  37.44721
      20   7.47048  37.99418         19.24996   0.700000  10.48429  37.44721   4.48474  37.37391   4.45666  38.54115  10.45622  38.61445
      20   7.44239  39.16191         19.26601   0.700000  10.45622  38.61445   4.45666  38.54115   4.42857  39.70937  10.42812  39.78267
      20   7.41428  40.33061         19.28207   0.700000  10.42812  39.78267   4.42857  39.70937   4.40045  40.87856  10.40000  40.95186
      20   7.38615  41.50029         19.29815   0.700000  10.40000  40.95186   4.40045  40.87856   4.37230  42.04872  10.37185  42.12202
      20   7.35799  42.67094         19.31423   0.700000  10.37185  42.12202   4.37230  42.04872   4.34413  43.21986  10.34369  43.29316
      20   7.32981  43.84257         19.33034   0.700000  10.34369  43.29316   4.34413  43.21986   4.31594  44.39197  10.31549  44.46528
      20   7.30161  45.01517         19.34645   0.700000  10.31549  44.46528   4.31594  44.39197   4.28773  45.56507  10.28728  45.63837
      20   7.27338  46.18875         19.36258   0.700000  10.28728  45.63837   4.28773  45.56507   4.25949  46.73914  10.25904  46.81244
      20   7.24513  47.36331         19.37872   0.700000  10.25904  46.81244   4.25949  46.73914   4.23123  47.91419  10.23078  47.98749
      20   7.21686  48.53885         19.39488   0.700000  10.23078  47.98749   4.23123  47.91419   4.20294  49.09022  10.20249  49.16352
      20   7.18856  49.71537         19.41105   0.700000  10.20249  49.16352   4.20294  49.09022   4.17463  50.26723  10.17418  50.34053
      20   7.16024  50.89287         19.42723   0.700000  10.17418  50.34053   4.17463  50.26723   4.14630  51.44522  10.14585  51.51852
      20   7.13190  52.07136         19.44343   0.700000  10.14585  51.51852   4.14630  51.44522   4.11794  52.62419  10.11750  52.69749
      20   7.10353  53.25082         19.45964   0.700000  10.11750  52.69749   4.11794  52.62419   4.08956  53.80415  10.08912  53.87745
      20   7.07514  54.43127         19.47586   0.700000  10.08912  53.87745   4.08956  53.80415   4.06116  54.98509  10.06071  55.05839
      20   7.04672  55.61270         19.49210   0.700000  10.06071  55.05839   4.06116  54.98509   4.03273  56.16701  10.03228  56.24031
      20   7.01828  56.79512         19.50835   0.700000  10.03228  56.24031   4.03273  56.16701   4.00428  57.34992  10.00383  57.42322
      20   6.98982  57.97852         19.52461   0.700000  10.00383  57.42322   4.00428  57.34992   3.97581  58.53382   9.97536  58.60712
      20   6.96133  59.16291         19.54089   0.700000   9.97536  58.60712   3.97581  58.53382   3.94731  59.71870   9.94686  59.79200
      20   6.93282  60.34829         19.55718   0.700000   9.94686  59.79200   3.94731  59.71870   3.91879  60.90457   9.91834  60.97788
      20   6.90429  61.53465         19.57348   0.700000   9.91834  60.97788   3.91879  60.90457   3.89024  62.09143   9.88979  62.16474
      20   6.87573  62.72201         19.58980   0.700000   9.88979  62.16474   3.89024  62.09143   3.86167  63.27928   9.86122  63.35258
      20   6.84715  63.91035         19.60613   0.700000   9.86122  63.35258   3.86167  63.27928   3.83308  64.46812   9.83263  64.54142
      20   6.81854  65.09969         19.62248   0.700000   9.83263  64.54142   3.83308  64.46812   3.80446  65.65795   9.80401  65.73126
      20   6.78991  66.29002         19.63884   0.700000   9.80401  65.73126   3.80446  65.65795   3.77582  66.84878   9.77537  66.92208
      20   6.76126  67.48134         19.65521   0.700000   9.77537  66.92208   3.77582  66.84878   3.74715  68.04059   9.74670  68.11389
      20   6.73258  68.67365         19.67160   0.700000   9.74670  68.11389   3.74715  68.04059   3.71846  69.23340   9.71801  69.30670
      20   6.70388  69.86695         19.68799   0.700000   9.71801  69.30670   3.71846  69.23340   3.68975  70.42721   9.68930  70.50051
      20   6.67516  71.06126         19.70441   0.700000   9.68930  70.50051   3.68975  70.42721   3.66101  71.62201   9.66056  71.69531
      20   6.64641  72.25655         19.72084   0.700000   9.66056  71.69531   3.66101  71.62201   3.63225  72.81780   9.63180  72.89110
      20   6.61764  73.45285         19.73728   0.700000   9.63180  72.89110   3.63225  72.81780   3.60347  74.01459   9.60302  74.08789
      20   6.58884  74.65014         19.75373   0.700000   9.60302  74.08789   3.60347  74.01459   3.57466  75.21238   9.57421  75.28568
      20   6.56002  75.84843         19.77020   0.700000   9.57421  75.28568   3.57466  75.21238   3.54582  76.41117   9.54538  76.48447
      20   6.53117  77.04772         19.78668   0.700000   9.54538  76.48447   3.54582  76.41117   3.51697  77.61096   9.51652  77.68426
      20   6.50230  78.24801         19.80318   0.700000   9.51652  77.68426   3.51697  77.61096   3.48809  78.81175   9.48764  78.88505
      20   6.47341  79.44929         19.81969   0.700000   9.48764  78.88505   3.48809  78.81175   3.45918  80.01354   9.45873  80.08684
      20   6.44449  80.65158         19.83621   0.700000   9.45873  80.08684   3.45918  80.01354   3.43025  81.21633   9.42980  81.28963
      20   6.41555  81.85488         19.85275   0.700000   9.42980  81.28963   3.43025  81.21633   3.40130  82.42012   9.40085  82.49343
      20   6.38659  83.05917         19.86930   0.700000   9.40085  82.49343   3.40130  82.42012   3.37232  83.62492   9.37187  83.69822
      20   6.35760  84.26447         19.88586   0.700000   9.37187  83.69822   3.37232  83.62492   3.34332  84.83072   9.34287  84.90403
      20   6.32858  85.47078         19.90244   0.700000   9.34287  84.90403   3.34332  84.83072   3.31429  86.03753   9.31385  86.11083
      20   6.29955  86.67809         19.91903   0.700000   9.31385  86.11083   3.31429  86.03753   3.28524  87.24535   9.28480  87.31865
      20   6.27048  87.88641         19.93564   0.700000   9.28480  87.31865   3.28524  87.24535   3.25617  88.45417   9.25572  88.52747
      20   6.24140  89.09573         19.95226   0.700000   9.25572  88.52747   3.25617  88.45417   3.22707  89.66400   9.22662  89.73730
      20   6.21229  90.30607         19.96889   0.700000   9.22662  89.73730   3.22707  89.66400   3.19795  90.87483   9.19750  90.94814
      20   6.18315  91.51741         19.98554   0.700000   9.19750  90.94814   3.19795  90.87483   3.16880  92.08668   9.16835  92.15998
      20   6.15399  92.72976         20.00220   0.700000   9.16835  92.15998   3.16880  92.08668   3.13963  93.29954   9.13918  93.37284
      20   6.12481  93.94312         20.01888   0.700000   9.13918  93.37284   3.13963  93.29954   3.11044  94.51341   9.10999  94.58671
      20   6.09560  95.15750         20.03557   0.700000   9.10999  94.58671   3.11044  94.51341   3.08122  95.72829   9.08077  95.80159
      20   6.06637  96.37289         20.05227   0.700000   9.08077  95.80159   3.08122  95.72829   3.05197  96.94418   9.05152  97.01748
      20   6.03711  97.58929         20.06899   0.700000   9.05152  97.01748   3.05197  96.94418   3.02270  98.16109   9.02225  98.23439
      20   6.00783  98.80670         20.08572   0.700000   9.02225  98.23439   3.02270  98.16109   2.99341  99.37901   8.99296  99.45231
      20   5.97853 100.02513         20.10246   0.700000   8.99296  99.45231   2.99341  99.37901   2.96409 100.59795   8.96364 100.67125
      20   5.94920 101.24457         20.11922   0.700000   8.96364 100.67125   2.96409 100.59795   2.93475 101.81790   8.93430 101.89120
      20   5.91984 102.46504         20.13600   0.700000   8.93430 101.89120   2.93475 101.81790   2.90538 103.03887   8.90494 103.11217
      20   5.89046 103.68652         20.15278   0.700000   8.90494 103.11217   2.90538 103.03887   2.87599 104.26086   8.87554 104.33416
      20   5.86106 104.90901         20.16958   0.700000   8.87554 104.33416   2.87599 104.26086   2.84658 105.48387   8.84613 105.55717
      20   5.83163 106.13253         20.18640   0.700000   8.84613 105.55717   2.84658 105.48387   2.81714 106.70789   8.81669 106.78120
      20   5.80218 107.35707         20.20323   0.700000   8.81669 106.78120   2.81714 106.70789   2.78767 107.93294   8.78722 108.00624
      20   5.77270 108.58263         20.22007   0.700000   8.78722 108.00624   2.78767 107.93294   2.75818 109.15901   8.75774 109.23231
      20   5.74320 109.80921         20.23693   0.700000   8.75774 109.23231   2.75818 109.15901   2.72867 110.38610   8.72822 110.45940
      20   5.71368 111.03681         20.25380   0.700000   8.72822 110.45940   2.72867 110.38610   2.69913 111.61422   8.69868 111.68752
      20   5.68413 112.26544         20.27068   0.700000   8.69868 111.68752   2.69913 111.61422   2.66957 112.84335   8.66912 112.91666
      20   5.65455 113.49509         20.28758   0.700000   8.66912 112.91666   2.66957 112.84335   2.63998 114.07352   8.63953 114.14682
      20   5.62495 114.72576         20.30450   0.700000   8.63953 114.14682   2.63998 114.07352   2.61037 115.30470   8.60992 115.37801
      20   5.59533 115.95746         20.32142   0.700000   8.60992 115.37801   2.61037 115.30470   2.58073 116.53692   8.58028 116.61022
      20   5.56568 117.19019         20.33837   0.700000   8.58028 116.61022   2.58073 116.53692   2.55107 117.77016   8.55062 117.84346
      20   5.53600 118.42395         20.35532   0.700000   8.55062 117.84346   2.55107 117.77016   2.52138 119.00443   8.52094 119.07773
      20   5.50631 119.65873         20.37229   0.700000   8.52094 119.07773   2.52138 119.00443   2.49167 120.23973   8.49123 120.31303
      20   5.47658 120.89455         20.38928   0.700000   8.49123 120.31303   2.49167 120.23973   2.46194 121.47606   8.46149 121.54936
      20   5.44683 122.13139         20.40627   0.700000   8.46149 121.54936   2.46194 121.47606   2.43218 122.71342   8.43173 122.78672
      20   5.41706 123.36927         20.42329   0.700000   8.43173 122.78672   2.43218 122.71342   2.40239 123.95181   8.40194 124.02512
      20   5.38726 124.60818         20.44031   0.700000   8.40194 124.02512   2.40239 123.95181   2.37258 125.19124   8.37213 125.26454
      20   5.35744 125.84812         20.45735   0.700000   8.37213 125.26454   2.37258 125.19124   2.34275 126.43170   8.34230 126.50500
      20   5.32759 127.08909         20.47441   0.700000   8.34230 126.50500   2.34275 126.43170   2.31289 127.67319   8.31244 127.74649
      19  15.57762   0.23640         19.67160   1.920000  18.58502  -0.20144  12.58839  -0.40247  12.57021   0.67424  18.56684   0.87526
      19  15.55943   1.31355         19.68799   1.920000  18.56684   0.87526  12.57021   0.67424  12.55202   1.75184  18.54865   1.95287
      19  15.54123   2.39161         19.70441   1.920000  18.54865   1.95287  12.55202   1.75184  12.53381   2.83034  18.53044   3.03137
      19  15.52301   3.47056         19.72084   1.920000  18.53044   3.03137  12.53381   2.83034  12.51558   3.90975  18.51221   4.11077
      19  15.50478   4.55041         19.73728   1.920000  18.51221   4.11077  12.51558   3.90975  12.49734   4.99005  18.49397   5.19107
      19  15.48653   5.63116         19.75373   1.920000  18.49397   5.19107  12.49734   4.99005  12.47909   6.07125  18.47572   6.27227
      19  15.46827   6.71281         19.77020   1.920000  18.47572   6.27227  12.47909   6.07125  12.46081   7.15335  18.45745   7.35438
      19  15.44999   7.79537         19.78668   1.920000  18.45745   7.35438  12.46081   7.15335  12.44253   8.23636  18.43916   8.43738
      19  15.43169   8.87883         19.80318   1.920000  18.43916   8.43738  12.44253   8.23636  12.42423   9.32027  18.42086   9.52129
      19  15.41338   9.96319         19.81969   1.920000  18.42086   9.52129  12.42423   9.32027  12.40591  10.40508  18.40254  10.60610
      19  15.39506  11.04845         19.83621   1.920000  18.40254  10.60610  12.40591  10.40508  12.38758  11.49080  18.38421  11.69182
      19  15.37672  12.13462         19.85275   1.920000  18.38421  11.69182  12.38758  11.49080  12.36923  12.57742  18.36586  12.77844
      19  15.35837  13.22169         19.86930   1.920000  18.36586  12.77844  12.36923  12.57742  12.35087  13.66494  18.34750  13.86597
      19  15.34000  14.30967         19.88586   1.920000  18.34750  13.86597  12.35087  13.66494  12.33249  14.75338  18.32912  14.95440
      19  15.32161  15.39856         19.90244   1.920000  18.32912  14.95440  12.33249  14.75338  12.31410  15.84272  18.31073  16.04374
      19  15.30321  16.48836         19.91903   1.920000  18.31073  16.04374  12.31410  15.84272  12.29569  16.93297  18.29232  17.13399
      19  15.28479  17.57906         19.93564   1.920000  18.29232  17.13399  12.29569  16.93297  12.27727  18.02413  18.27390  18.22515
      19  15.26636  18.67067         19.95226   1.920000  18.27390  18.22515  12.27727  18.02413  12.25883  19.11620  18.25546  19.31722
      19  15.24792  19.76320         19.96889   1.920000  18.25546  19.31722  12.25883  19.11620  12.24037  20.20918  18.23700  20.41020
      19  15.22945  20.85663         19.98554   1.920000  18.23700  20.41020  12.24037  20.20918  12.22190  21.30306  18.21853  21.50409
      19  15.21098  21.95098         20.00220   1.920000  18.21853  21.50409  12.22190  21.30306  12.20342  22.39787  18.20005  22.59889
      19  15.19248  23.04624         20.01888   1.920000  18.20005  22.59889  12.20342  22.39787  12.18492  23.49358  18.18155  23.69461
      19  15.17397  24.14241         20.03557   1.920000  18.18155  23.69461  12.18492  23.49358  12.16640  24.59021  18.16303  24.79123
      19  15.15545  25.23949         20.05227   1.920000  18.16303  24.79123  12.16640  24.59021  12.14787  25.68775  18.14450  25.88878
      19  15.13691  26.33749         20.06899   1.920000  18.14450  25.88878  12.14787  25.68775  12.12932  26.78621  18.12595  26.98723
      19  15.11836  27.43641         20.08572   1.920000  18.12595  26.98723  12.12932  26.78621  12.11076  27.88558  18.10739  28.08661
      19  15.09979  28.53624         20.10246   1.920000  18.10739  28.08661  12.11076  27.88558  12.09218  28.98587  18.08881  29.18689
      19  15.08120  29.63699         20.11922   1.920000  18.08881  29.18689  12.09218  28.98587  12.07359  30.08708  18.07022  30.28810
      19  15.06260  30.73865         20.13600   1.920000  18.07022  30.28810  12.07359  30.08708  12.05498  31.18920  18.05161  31.39023
      19  15.04398  31.84124         20.15278   1.920000  18.05161  31.39023  12.05498  31.18920  12.03635  32.29224  18.03299  32.49327
      19  15.02535  32.94474         20.16958   1.920000  18.03299  32.49327  12.03635  32.29224  12.01771  33.39621  18.01435  33.59723
      19  15.00670  34.04916         20.18640   1.920000  18.01435  33.59723  12.01771  33.39621  11.99906  34.50109  17.99569  34.70212
      19  14.98804  35.15451         20.20323   1.920000  17.99569  34.70212  11.99906  34.50109  11.98039  35.60690  17.97702  35.80792
      19  14.96936  36.26077         20.22007   1.920000  17.97702  35.80792  11.98039  35.60690  11.96170  36.71362  17.95833  36.91465
      19  14.95067  37.36796         20.23693   1.920000  17.95833  36.91465  11.96170  36.71362  11.94300  37.82127  17.93963  38.02230
