\wavsamp version 5.1 (Wed Apr 20 08:45:04 PDT 2005)
\processing time 13:15:57 PST 05/02/2005
\character channelID = 3
| order |x_center |y_center |   wavelength   |  angle   |   x0    |   y0    |   x1    |   y1    |   x2    |   y2    |   x3    |   y3    |
| int   |  real   |  real   |    real        |   real   |  real   |  real   |  real   |  real   |  real   |  real   |  real   |  real   |
      20   7.71036  -0.06412         18.74110   0.700000  10.05714  -0.51129   5.39082  -0.56830   5.36357   0.38327  10.02989   0.44028
      20   7.68310   0.88829         18.75672   0.700000  10.02989   0.44028   5.36357   0.38327   5.33630   1.33652  10.00262   1.39353
      20   7.65581   1.84238         18.77236   0.700000  10.00262   1.39353   5.33630   1.33652   5.30901   2.29145   9.97532   2.34846
      20   7.62851   2.79815         18.78801   0.700000   9.97532   2.34846   5.30901   2.29145   5.28169   3.24805   9.94801   3.30507
      20   7.60118   3.75559         18.80367   0.700000   9.94801   3.30507   5.28169   3.24805   5.25435   4.20634   9.92067   4.26335
      20   7.57383   4.71472         18.81935   0.700000   9.92067   4.26335   5.25435   4.20634   5.22698   5.16632   9.89330   5.22333
      20   7.54645   5.67554         18.83504   0.700000   9.89330   5.22333   5.22698   5.16632   5.19960   6.12798   9.86592   6.18499
      20   7.51905   6.63805         18.85074   0.700000   9.86592   6.18499   5.19960   6.12798   5.17219   7.09133   9.83851   7.14835
      20   7.49163   7.60225         18.86646   0.700000   9.83851   7.14835   5.17219   7.09133   5.14476   8.05638   9.81108   8.11339
      20   7.46419   8.56815         18.88219   0.700000   9.81108   8.11339   5.14476   8.05638   5.11730   9.02313   9.78362   9.08014
      20   7.43672   9.53574         18.89793   0.700000   9.78362   9.08014   5.11730   9.02313   5.08983   9.99157   9.75614  10.04858
      20   7.40924  10.50504         18.91368   0.700000   9.75614  10.04858   5.08983   9.99157   5.06233  10.96172   9.72864  11.01873
      20   7.38172  11.47604         18.92945   0.700000   9.72864  11.01873   5.06233  10.96172   5.03480  11.93357   9.70112  11.99059
      20   7.35419  12.44875         18.94523   0.700000   9.70112  11.99059   5.03480  11.93357   5.00726  12.90714   9.67358  12.96415
      20   7.32663  13.42317         18.96103   0.700000   9.67358  12.96415   5.00726  12.90714   4.97969  13.88241   9.64601  13.93942
      20   7.29905  14.39930         18.97683   0.700000   9.64601  13.93942   4.97969  13.88241   4.95210  14.85940   9.61841  14.91641
      20   7.27145  15.37715         18.99265   0.700000   9.61841  14.91641   4.95210  14.85940   4.92448  15.83810   9.59080  15.89512
      20   7.24382  16.35671         19.00849   0.700000   9.59080  15.89512   4.92448  15.83810   4.89684  16.81853   9.56316  16.87554
      20   7.21617  17.33800         19.02434   0.700000   9.56316  16.87554   4.89684  16.81853   4.86918  17.80068   9.53550  17.85769
      20   7.18850  18.32101         19.04020   0.700000   9.53550  17.85769   4.86918  17.80068   4.84150  18.78456   9.50782  18.84157
      20   7.16080  19.30575         19.05607   0.700000   9.50782  18.84157   4.84150  18.78456   4.81379  19.77016   9.48011  19.82718
      20   7.13308  20.29223         19.07196   0.700000   9.48011  19.82718   4.81379  19.77016   4.78606  20.75750   9.45238  20.81451
      20   7.10534  21.28043         19.08786   0.700000   9.45238  20.81451   4.78606  20.75750   4.75831  21.74658   9.42462  21.80359
      20   7.07758  22.27037         19.10377   0.700000   9.42462  21.80359   4.75831  21.74658   4.73053  22.73739   9.39685  22.79440
      20   7.04979  23.26205         19.11970   0.700000   9.39685  22.79440   4.73053  22.73739   4.70273  23.72994   9.36905  23.78695
      20   7.02198  24.25548         19.13564   0.700000   9.36905  23.78695   4.70273  23.72994   4.67491  24.72424   9.34122  24.78125
      20   6.99414  25.25065         19.15159   0.700000   9.34122  24.78125   4.67491  24.72424   4.64706  25.72028   9.31338  25.77729
      20   6.96628  26.24757         19.16755   0.700000   9.31338  25.77729   4.64706  25.72028   4.61919  26.71807   9.28551  26.77509
      20   6.93840  27.24624         19.18353   0.700000   9.28551  26.77509   4.61919  26.71807   4.59130  27.71762   9.25762  27.77463
      20   6.91050  28.24666         19.19953   0.700000   9.25762  27.77463   4.59130  27.71762   4.56338  28.71892   9.22970  28.77594
      20   6.88257  29.24885         19.21553   0.700000   9.22970  28.77594   4.56338  28.71892   4.53544  29.72199   9.20176  29.77900
      20   6.85462  30.25279         19.23155   0.700000   9.20176  29.77900   4.53544  29.72199   4.50748  30.72681   9.17380  30.78382
      20   6.82665  31.25850         19.24759   0.700000   9.17380  30.78382   4.50748  30.72681   4.47950  31.73340   9.14581  31.79041
      20   6.79865  32.26597         19.26363   0.700000   9.14581  31.79041   4.47950  31.73340   4.45149  32.74176   9.11780  32.79877
      20   6.77063  33.27521         19.27969   0.700000   9.11780  32.79877   4.45149  32.74176   4.42345  33.75189   9.08977  33.80890
      20   6.74259  34.28623         19.29576   0.700000   9.08977  33.80890   4.42345  33.75189   4.39540  34.76379   9.06172  34.82080
      20   6.71452  35.29902         19.31185   0.700000   9.06172  34.82080   4.39540  34.76379   4.36732  35.77747   9.03364  35.83448
      20   6.68643  36.31359         19.32795   0.700000   9.03364  35.83448   4.36732  35.77747   4.33922  36.79293   9.00553  36.84994
      20   6.65831  37.32994         19.34406   0.700000   9.00553  36.84994   4.33922  36.79293   4.31109  37.81017   8.97741  37.86719
      20   6.63017  38.34808         19.36019   0.700000   8.97741  37.86719   4.31109  37.81017   4.28294  38.82920   8.94926  38.88622
      20   6.60201  39.36800         19.37633   0.700000   8.94926  38.88622   4.28294  38.82920   4.25477  39.85002   8.92109  39.90704
      20   6.57383  40.38972         19.39249   0.700000   8.92109  39.90704   4.25477  39.85002   4.22657  40.87264   8.89289  40.92965
      20   6.54562  41.41323         19.40865   0.700000   8.89289  40.92965   4.22657  40.87264   4.19835  41.89704   8.86467  41.95406
      20   6.51739  42.43853         19.42483   0.700000   8.86467  41.95406   4.19835  41.89704   4.17011  42.92325   8.83643  42.98026
      20   6.48913  43.46564         19.44103   0.700000   8.83643  42.98026   4.17011  42.92325   4.14184  43.95126   8.80816  44.00827
      20   6.46086  44.49455         19.45723   0.700000   8.80816  44.00827   4.14184  43.95126   4.11355  44.98107   8.77987  45.03808
      20   6.43255  45.52527         19.47346   0.700000   8.77987  45.03808   4.11355  44.98107   4.08524  46.01269   8.75155  46.06970
      20   6.40423  46.55779         19.48969   0.700000   8.75155  46.06970   4.08524  46.01269   4.05690  47.04612   8.72322  47.10313
      20   6.37588  47.59213         19.50594   0.700000   8.72322  47.10313   4.05690  47.04612   4.02854  48.08137   8.69486  48.13838
      20   6.34750  48.62828         19.52220   0.700000   8.69486  48.13838   4.02854  48.08137   4.00015  49.11843   8.66647  49.17544
      20   6.31911  49.66626         19.53848   0.700000   8.66647  49.17544   4.00015  49.11843   3.97174  50.15731   8.63806  50.21432
      20   6.29069  50.70605         19.55476   0.700000   8.63806  50.21432   3.97174  50.15731   3.94331  51.19802   8.60963  51.25503
      20   6.26224  51.74767         19.57107   0.700000   8.60963  51.25503   3.94331  51.19802   3.91486  52.24055   8.58117  52.29756
      20   6.23377  52.79112         19.58738   0.700000   8.58117  52.29756   3.91486  52.24055   3.88638  53.28491   8.55269  53.34192
      20   6.20528  53.83640         19.60371   0.700000   8.55269  53.34192   3.88638  53.28491   3.85787  54.33111   8.52419  54.38812
      20   6.17677  54.88351         19.62006   0.700000   8.52419  54.38812   3.85787  54.33111   3.82934  55.37914   8.49566  55.43615
      20   6.14823  55.93246         19.63641   0.700000   8.49566  55.43615   3.82934  55.37914   3.80079  56.42901   8.46711  56.48602
      20   6.11967  56.98325         19.65278   0.700000   8.46711  56.48602   3.80079  56.42901   3.77222  57.48072   8.43854  57.53773
      20   6.09108  58.03588         19.66917   0.700000   8.43854  57.53773   3.77222  57.48072   3.74362  58.53428   8.40994  58.59129
      20   6.06247  59.09036         19.68557   0.700000   8.40994  58.59129   3.74362  58.53428   3.71500  59.58968   8.38132  59.64669
      20   6.03383  60.14670         19.70198   0.700000   8.38132  59.64669   3.71500  59.58968   3.68635  60.64694   8.35267  60.70395
      20   6.00517  61.20488         19.71840   0.700000   8.35267  60.70395   3.68635  60.64694   3.65768  61.70605   8.32400  61.76306
      20   5.97649  62.26492         19.73484   0.700000   8.32400  61.76306   3.65768  61.70605   3.62899  62.76702   8.29530  62.82403
      20   5.94779  63.32682         19.75129   0.700000   8.29530  62.82403   3.62899  62.76702   3.60027  63.82985   8.26659  63.88686
      20   5.91906  64.39058         19.76776   0.700000   8.26659  63.88686   3.60027  63.82985   3.57153  64.89455   8.23784  64.95156
      20   5.89030  65.45621         19.78424   0.700000   8.23784  64.95156   3.57153  64.89455   3.54276  65.96111   8.20908  66.01812
      20   5.86152  66.52371         19.80073   0.700000   8.20908  66.01812   3.54276  65.96111   3.51397  67.02954   8.18029  67.08656
      20   5.83272  67.59308         19.81724   0.700000   8.18029  67.08656   3.51397  67.02954   3.48516  68.09985   8.15147  68.15686
      20   5.80390  68.66433         19.83376   0.700000   8.15147  68.15686   3.48516  68.09985   3.45632  69.17203   8.12264  69.22905
      20   5.77505  69.73745         19.85030   0.700000   8.12264  69.22905   3.45632  69.17203   3.42746  70.24610   8.09377  70.30311
      20   5.74617  70.81246         19.86685   0.700000   8.09377  70.30311   3.42746  70.24610   3.39857  71.32205   8.06489  71.37906
      20   5.71727  71.88935         19.88341   0.700000   8.06489  71.37906   3.39857  71.32205   3.36966  72.39988   8.03598  72.45689
      20   5.68835  72.96813         19.89998   0.700000   8.03598  72.45689   3.36966  72.39988   3.34073  73.47961   8.00704  73.53662
      20   5.65941  74.04880         19.91658   0.700000   8.00704  73.53662   3.34073  73.47961   3.31177  74.56122   7.97809  74.61824
      20   5.63043  75.13136         19.93318   0.700000   7.97809  74.61824   3.31177  74.56122   3.28278  75.64474   7.94910  75.70175
      20   5.60144  76.21583         19.94980   0.700000   7.94910  75.70175   3.28278  75.64474   3.25378  76.73015   7.92010  76.78717
      20   5.57242  77.30219         19.96643   0.700000   7.92010  76.78717   3.25378  76.73015   3.22475  77.81747   7.89107  77.87448
      20   5.54338  78.39046         19.98307   0.700000   7.89107  77.87448   3.22475  77.81747   3.19569  78.90669   7.86201  78.96370
      20   5.51431  79.48064         19.99973   0.700000   7.86201  78.96370   3.19569  78.90669   3.16661  79.99782   7.83293  80.05484
      20   5.48522  80.57273         20.01641   0.700000   7.83293  80.05484   3.16661  79.99782   3.13751  81.09087   7.80383  81.14788
      20   5.45610  81.66673         20.03309   0.700000   7.80383  81.14788   3.13751  81.09087   3.10838  82.18583   7.77470  82.24284
      20   5.42696  82.76265         20.04980   0.700000   7.77470  82.24284   3.10838  82.18583   3.07923  83.28271   7.74555  83.33972
      20   5.39780  83.86049         20.06651   0.700000   7.74555  83.33972   3.07923  83.28271   3.05005  84.38151   7.71637  84.43852
      20   5.36861  84.96026         20.08324   0.700000   7.71637  84.43852   3.05005  84.38151   3.02085  85.48224   7.68717  85.53925
      20   5.33940  86.06195         20.09998   0.700000   7.68717  85.53925   3.02085  85.48224   2.99163  86.58490   7.65794  86.64191
      20   5.31016  87.16557         20.11674   0.700000   7.65794  86.64191   2.99163  86.58490   2.96238  87.68949   7.62870  87.74650
      20   5.28090  88.27113         20.13351   0.700000   7.62870  87.74650   2.96238  87.68949   2.93310  88.79601   7.59942  88.85302
      20   5.25161  89.37862         20.15030   0.700000   7.59942  88.85302   2.93310  88.79601   2.90380  89.90448   7.57012  89.96149
      20   5.22230  90.48806         20.16709   0.700000   7.57012  89.96149   2.90380  89.90448   2.87448  91.01488   7.54080  91.07189
      20   5.19297  91.59944         20.18391   0.700000   7.54080  91.07189   2.87448  91.01488   2.84513  92.12723   7.51145  92.18425
      20   5.16361  92.71276         20.20073   0.700000   7.51145  92.18425   2.84513  92.12723   2.81576  93.24153   7.48208  93.29855
      20   5.13422  93.82804         20.21758   0.700000   7.48208  93.29855   2.81576  93.24153   2.78637  94.35779   7.45269  94.41480
      20   5.10482  94.94527         20.23443   0.700000   7.45269  94.41480   2.78637  94.35779   2.75695  95.47600   7.42326  95.53301
      20   5.07538  96.06446         20.25130   0.700000   7.42326  95.53301   2.75695  95.47600   2.72750  96.59616   7.39382  96.65318
      20   5.04593  97.18561         20.26818   0.700000   7.39382  96.65318   2.72750  96.59616   2.69803  97.71829   7.36435  97.77531
      20   5.01644  98.30872         20.28508   0.700000   7.36435  97.77531   2.69803  97.71829   2.66854  98.84239   7.33486  98.89940
      20   4.98694  99.43380         20.30199   0.700000   7.33486  98.89940   2.66854  98.84239   2.63902  99.96845   7.30534 100.02547
      20   4.95741 100.56085         20.31892   0.700000   7.30534 100.02547   2.63902  99.96845   2.60948 101.09649   7.27579 101.15350
      20   4.92785 101.68987         20.33586   0.700000   7.27579 101.15350   2.60948 101.09649   2.57991 102.22650   7.24623 102.28351
      20   4.89827 102.82087         20.35281   0.700000   7.24623 102.28351   2.57991 102.22650   2.55031 103.35849   7.21663 103.41551
      20   4.86867 103.95386         20.36978   0.700000   7.21663 103.41551   2.55031 103.35849   2.52070 104.49247   7.18702 104.54948
      20   4.83904 105.08882         20.38676   0.700000   7.18702 104.54948   2.52070 104.49247   2.49106 105.62843   7.15737 105.68544
      20   4.80938 106.22578         20.40376   0.700000   7.15737 105.68544   2.49106 105.62843   2.46139 106.76637   7.12771 106.82339
      20   4.77970 107.36472         20.42077   0.700000   7.12771 106.82339   2.46139 106.76637   2.43170 107.90632   7.09802 107.96333
      20   4.75000 108.50566         20.43779   0.700000   7.09802 107.96333   2.43170 107.90632   2.40198 109.04825   7.06830 109.10527
      20   4.72027 109.64860         20.45483   0.700000   7.06830 109.10527   2.40198 109.04825   2.37224 110.19219   7.03856 110.24920
      20   4.69052 110.79354         20.47188   0.700000   7.03856 110.24920   2.37224 110.19219   2.34247 111.33813   7.00879 111.39514
      20   4.66074 111.94048         20.48895   0.700000   7.00879 111.39514   2.34247 111.33813   2.31268 112.48608   6.97900 112.54309
      20   4.63093 113.08943         20.50603   0.700000   6.97900 112.54309   2.31268 112.48608   2.28287 113.63603   6.94919 113.69304
      20   4.60111 114.24039         20.52313   0.700000   6.94919 113.69304   2.28287 113.63603   2.25303 114.78800   6.91935 114.84501
      20   4.57125 115.39337         20.54023   0.700000   6.91935 114.84501   2.25303 114.78800   2.22316 115.94198   6.88948 115.99900
      20   4.54138 116.54836         20.55736   0.700000   6.88948 115.99900   2.22316 115.94198   2.19327 117.09799   6.85959 117.15500
      20   4.51147 117.70538         20.57450   0.700000   6.85959 117.15500   2.19327 117.09799   2.16336 118.25602   6.82967 118.31303
      20   4.48155 118.86442         20.59165   0.700000   6.82967 118.31303   2.16336 118.25602   2.13342 119.41607   6.79973 119.47309
      20   4.45159 120.02549         20.60882   0.700000   6.79973 119.47309   2.13342 119.41607   2.10345 120.57816   6.76977 120.63517
      20   4.42162 121.18859         20.62600   0.700000   6.76977 120.63517   2.10345 120.57816   2.07346 121.74228   6.73978 121.79929
      20   4.39161 122.35373         20.64319   0.700000   6.73978 121.79929   2.07346 121.74228   2.04345 122.90844   6.70977 122.96545
      20   4.36159 123.52091         20.66040   0.700000   6.70977 122.96545   2.04345 122.90844   2.01341 124.07663   6.67973 124.13365
      20   4.33153 124.69013         20.67763   0.700000   6.67973 124.13365   2.01341 124.07663   1.98334 125.24688   6.64966 125.30389
      20   4.30146 125.86139         20.69487   0.700000   6.64966 125.30389   1.98334 125.24688   1.95325 126.41917   6.61957 126.47618
      20   4.27135 127.03471         20.71212   0.700000   6.61957 126.47618   1.95325 126.41917   1.92314 127.59351   6.58946 127.65052
      20   4.24123 128.21008         20.72939   0.700000   6.58946 127.65052   1.92314 127.59351   1.89300 128.76990   6.55931 128.82691
      20   4.21107 129.38750         20.74667   0.700000   6.55931 128.82691   1.89300 128.76990   1.86283 129.94836   6.52915 130.00537
      20   4.18090 130.56698         20.76396   0.700000   6.52915 130.00537   1.86283 129.94836   1.83264 131.12887   6.49896 131.18588
      19  14.73200  -4.63400         19.66917   1.920000  17.07309  -5.04251  12.40904  -5.19886  12.39091  -4.22526  17.05495  -4.06890
      19  14.71385  -3.65952         19.68557   1.920000  17.05495  -4.06890  12.39091  -4.22526  12.37276  -3.24991  17.03680  -3.09356
      19  14.69570  -2.68331         19.70198   1.920000  17.03680  -3.09356  12.37276  -3.24991  12.35459  -2.27282  17.01864  -2.11647
      19  14.67753  -1.70534         19.71840   1.920000  17.01864  -2.11647  12.35459  -2.27282  12.33641  -1.29398  17.00046  -1.13763
      19  14.65934  -0.72563         19.73484   1.920000  17.00046  -1.13763  12.33641  -1.29398  12.31822  -0.31339  16.98226  -0.15704
      19  14.64114   0.25584         19.75129   1.920000  16.98226  -0.15704  12.31822  -0.31339  12.30001   0.66895  16.96405   0.82530
      19  14.62292   1.23906         19.76776   1.920000  16.96405   0.82530  12.30001   0.66895  12.28178   1.65305  16.94583   1.80940
      19  14.60468   2.22404         19.78424   1.920000  16.94583   1.80940  12.28178   1.65305  12.26354   2.63891  16.92759   2.79526
      19  14.58644   3.21078         19.80073   1.920000  16.92759   2.79526  12.26354   2.63891  12.24529   3.62653  16.90933   3.78288
      19  14.56817   4.19928         19.81724   1.920000  16.90933   3.78288  12.24529   3.62653  12.22701   4.61592  16.89106   4.77227
      19  14.54989   5.18956         19.83376   1.920000  16.89106   4.77227  12.22701   4.61592  12.20873   5.60708  16.87278   5.76343
      19  14.53160   6.18160         19.85030   1.920000  16.87278   5.76343  12.20873   5.60708  12.19043   6.60001  16.85447   6.75636
      19  14.51329   7.17542         19.86685   1.920000  16.85447   6.75636  12.19043   6.60001  12.17211   7.59471  16.83616   7.75107
      19  14.49497   8.17101         19.88341   1.920000  16.83616   7.75107  12.17211   7.59471  12.15378   8.59120  16.81782   8.74755
      19  14.47663   9.16839         19.89998   1.920000  16.81782   8.74755  12.15378   8.59120  12.13543   9.58946  16.79948   9.74582
      19  14.45827  10.16755         19.91658   1.920000  16.79948   9.74582  12.13543   9.58946  12.11707  10.58951  16.78112  10.74587
      19  14.43990  11.16849         19.93318   1.920000  16.78112  10.74587  12.11707  10.58951  12.09869  11.59135  16.76274  11.74770
      19  14.42152  12.17122         19.94980   1.920000  16.76274  11.74770  12.09869  11.59135  12.08030  12.59498  16.74434  12.75133
      19  14.40312  13.17574         19.96643   1.920000  16.74434  12.75133  12.08030  12.59498  12.06189  13.60040  16.72594  13.75675
