\wavsamp version 3.0 (Fri Jul 28 12:09:58 PDT 2000)
\processing time 14:20:57 PST 11/13/2001
| order |x_center |y_center |   wavelength   |  angle   |   x0    |   y0    |   x1    |   y1    |   x2    |   y2    |   x3    |   y3    |
| int   |  real   |  real   |    real        |   real   |  real   |  real   |  real   |  real   |  real   |  real   |  real   |  real   |
20       121.33905 128.01608         10.00000   0.170000 124.08223 128.63544 118.58225 128.61912 118.59588 127.39672 124.09586 127.41304
20       121.35272 126.79317         10.00834   0.170000 124.09586 127.41304 118.59588 127.39672 118.60959 126.17330 124.10957 126.18962
20       121.36646 125.56924         10.01668   0.170000 124.10957 126.18962 118.60959 126.17330 118.62338 124.94886 124.12335 124.96517
20       121.38029 124.34428         10.02503   0.170000 124.12335 124.96517 118.62338 124.94886 118.63725 123.72339 124.13723 123.73971
20       121.39421 123.11831         10.03339   0.170000 124.13723 123.73971 118.63725 123.72339 118.65122 122.49691 124.15119 122.51323
20       121.40823 121.89131         10.04175   0.170000 124.15119 122.51323 118.65122 122.49691 118.66528 121.26940 124.16526 121.28572
20       121.42235 120.66329         10.05013   0.170000 124.16526 121.28572 118.66528 121.26940 118.67946 120.04087 124.17943 120.05719
20       121.43657 119.43425         10.05850   0.170000 124.17943 120.05719 118.67946 120.04087 118.69374 118.81131 124.19372 118.82763
20       121.45092 118.20418         10.06689   0.170000 124.19372 118.82763 118.69374 118.81131 118.70815 117.58073 124.20812 117.59705
20       121.46539 116.97309         10.07528   0.170000 124.20812 117.59705 118.70815 117.58073 118.72268 116.34913 124.22265 116.36545
20       121.47998 115.74097         10.08368   0.170000 124.22265 116.36545 118.72268 116.34913 118.73734 115.11649 124.23732 115.13281
20       121.49471 114.50782         10.09209   0.170000 124.23732 115.13281 118.73734 115.11649 118.75214 113.88283 124.25212 113.89915
20       121.50958 113.27365         10.10050   0.170000 124.25212 113.89915 118.75214 113.88283 118.76709 112.64815 124.26706 112.66446
20       121.52461 112.03845         10.10892   0.170000 124.26706 112.66446 118.76709 112.64815 118.78218 111.41243 124.28216 111.42875
20       121.53978 110.80221         10.11735   0.170000 124.28216 111.42875 118.78218 111.41243 118.79744 110.17568 124.29741 110.19200
20       121.55512 109.56495         10.12578   0.170000 124.29741 110.19200 118.79744 110.17568 118.81286 108.93790 124.31284 108.95422
20       121.57062 108.32665         10.13423   0.170000 124.31284 108.95422 118.81286 108.93790 118.82845 107.69909 124.32843 107.71541
20       121.58630 107.08733         10.14267   0.170000 124.32843 107.71541 118.82845 107.69909 118.84422 106.45924 124.34420 106.47556
20       121.60217 105.84696         10.15113   0.170000 124.34420 106.47556 118.84422 106.45924 118.86018 105.21837 124.36015 105.23468
20       121.61822 104.60557         10.15959   0.170000 124.36015 105.23468 118.86018 105.21837 118.87632 103.97645 124.37630 103.99277
20       121.63446 103.36314         10.16806   0.170000 124.37630 103.99277 118.87632 103.97645 118.89267 102.73351 124.39265 102.74983
20       121.65091 102.11967         10.17654   0.170000 124.39265 102.74983 118.89267 102.73351 118.90922 101.48952 124.40920 101.50584
20       121.66756 100.87517         10.18502   0.170000 124.40920 101.50584 118.90922 101.48952 118.92598 100.24450 124.42596 100.26082
20       121.68444  99.62963         10.19352   0.170000 124.42596 100.26082 118.92598 100.24450 118.94297  98.99844 124.44294  99.01476
20       121.70153  98.38305         10.20201   0.170000 124.44294  99.01476 118.94297  98.99844 118.96018  97.75135 124.46015  97.76766
20       121.71886  97.13544         10.21052   0.170000 124.46015  97.76766 118.96018  97.75135 118.97762  96.50321 124.47759  96.51953
20       121.73642  95.88678         10.21903   0.170000 124.47759  96.51953 118.97762  96.50321 118.99530  95.25403 124.49527  95.27035
20       121.75422  94.63708         10.22755   0.170000 124.49527  95.27035 118.99530  95.25403 119.01323  94.00381 124.51320  94.02013
20       121.77228  93.38634         10.23608   0.170000 124.51320  94.02013 119.01323  94.00381 119.03141  92.75255 124.53139  92.76887
20       121.79059  92.13456         10.24461   0.170000 124.53139  92.76887 119.03141  92.75255 119.04986  91.50024 124.54983  91.51656
20       121.80917  90.88173         10.25315   0.170000 124.54983  91.51656 119.04986  91.50024 119.06857  90.24690 124.56854  90.26321
20       121.82802  89.62786         10.26170   0.170000 124.56854  90.26321 119.06857  90.24690 119.08756  88.99250 124.58753  89.00882
20       121.84715  88.37294         10.27025   0.170000 124.58753  89.00882 119.08756  88.99250 119.10683  87.73706 124.60681  87.75338
20       121.86656  87.11698         10.27882   0.170000 124.60681  87.75338 119.10683  87.73706 119.12639  86.48058 124.62637  86.49690
20       121.88627  85.85997         10.28739   0.170000 124.62637  86.49690 119.12639  86.48058 119.14625  85.22304 124.64623  85.23936
20       121.90628  84.60191         10.29596   0.170000 124.64623  85.23936 119.14625  85.22304 119.16641  83.96446 124.66639  83.98078
20       121.92660  83.34281         10.30455   0.170000 124.66639  83.98078 119.16641  83.96446 119.18689  82.70483 124.68687  82.72115
20       121.94724  82.08265         10.31314   0.170000 124.68687  82.72115 119.18689  82.70483 119.20768  81.44415 124.70766  81.46047
20       121.96819  80.82144         10.32173   0.170000 124.70766  81.46047 119.20768  81.44415 119.22881  80.18242 124.72878  80.19874
20       121.98948  79.55918         10.33034   0.170000 124.72878  80.19874 119.22881  80.18242 119.25026  78.91963 124.75024  78.93595
20       122.01111  78.29587         10.33895   0.170000 124.75024  78.93595 119.25026  78.91963 119.27206  77.65580 124.77204  77.67212
20       122.03308  77.03151         10.34757   0.170000 124.77204  77.67212 119.27206  77.65580 119.29421  76.39091 124.79418  76.40722
20       122.05541  75.76609         10.35620   0.170000 124.79418  76.40722 119.29421  76.39091 119.31671  75.12496 124.81669  75.14128
20       122.07809  74.49962         10.36483   0.170000 124.81669  75.14128 119.31671  75.12496 119.33958  73.85796 124.83956  73.87428
20       122.10114  73.23209         10.37347   0.170000 124.83956  73.87428 119.33958  73.85796 119.36282  72.58990 124.86280  72.60622
20       122.12457  71.96351         10.38212   0.170000 124.86280  72.60622 119.36282  72.58990 119.38644  71.32079 124.88642  71.33711
20       122.14839  70.69386         10.39078   0.170000 124.88642  71.33711 119.38644  71.32079 119.41045  70.05062 124.91042  70.06694
20       122.17259  69.42316         10.39944   0.170000 124.91042  70.06694 119.41045  70.05062 119.43485  68.77939 124.93483  68.79571
20       122.19719  68.15140         10.40811   0.170000 124.93483  68.79571 119.43485  68.77939 119.45966  67.50710 124.95963  67.52342
20       122.22220  66.87858         10.41678   0.170000 124.95963  67.52342 119.45966  67.50710 119.48487  66.23375 124.98485  66.25006
20       122.24763  65.60470         10.42547   0.170000 124.98485  66.25006 119.48487  66.23375 119.51051  64.95933 125.01048  64.97565
20       122.27347  64.32976         10.43416   0.170000 125.01048  64.97565 119.51051  64.95933 119.53657  63.68386 125.03654  63.70018
20       122.29975  63.05375         10.44286   0.170000 125.03654  63.70018 119.53657  63.68386 119.56306  62.40732 125.06304  62.42364
20       122.32647  61.77668         10.45157   0.170000 125.06304  62.42364 119.56306  62.40732 119.59000  61.12972 125.08998  61.14604
20       122.35363  60.49854         10.46028   0.170000 125.08998  61.14604 119.59000  61.12972 119.61739  59.85105 125.11736  59.86737
20       122.38124  59.21934         10.46900   0.170000 125.11736  59.86737 119.61739  59.85105 119.64523  58.57131 125.14521  58.58763
20       122.40932  57.93907         10.47773   0.170000 125.14521  58.58763 119.64523  58.57131 119.67355  57.29051 125.17352  57.30683
20       122.43787  56.65774         10.48646   0.170000 125.17352  57.30683 119.67355  57.29051 119.70233  56.00865 125.20231  56.02496
20       122.46690  55.37534         10.49520   0.170000 125.20231  56.02496 119.70233  56.00865 119.73160  54.72571 125.23158  54.74203
20       122.49641  54.09186         10.50395   0.170000 125.23158  54.74203 119.73160  54.72571 119.76136  53.44170 125.26134  53.45802
20       122.52642  52.80732         10.51271   0.170000 125.26134  53.45802 119.76136  53.44170 119.79162  52.15662 125.29160  52.17294
20       122.55693  51.52171         10.52148   0.170000 125.29160  52.17294 119.79162  52.15662 119.82239  50.87048 125.32236  50.88679
20       122.58795  50.23503         10.53025   0.170000 125.32236  50.88679 119.82239  50.87048 119.85367  49.58326 125.35364  49.59957
20       122.61950  48.94727         10.53903   0.170000 125.35364  49.59957 119.85367  49.58326 119.88547  48.29496 125.38545  48.31128
20       122.65157  47.65844         10.54781   0.170000 125.38545  48.31128 119.88547  48.29496 119.91781  47.00559 125.41779  47.02191
20       122.68417  46.36853         10.55661   0.170000 125.41779  47.02191 119.91781  47.00559 119.95069  45.71515 125.45066  45.73147
20       122.71732  45.07755         10.56541   0.170000 125.45066  45.73147 119.95069  45.71515 119.98411  44.42363 125.48409  44.43995
20       122.75103  43.78549         10.57421   0.170000 125.48409  44.43995 119.98411  44.42363 120.01810  43.13104 125.51807  43.14736
20       122.78529  42.49236         10.58303   0.170000 125.51807  43.14736 120.01810  43.13104 120.05265  41.83736 125.55262  41.85368
20       122.82013  41.19815         10.59185   0.170000 125.55262  41.85368 120.05265  41.83736 120.08777  40.54261 125.58775  40.55893
20       122.85554  39.90286         10.60068   0.170000 125.58775  40.55893 120.08777  40.54261 120.12348  39.24678 125.62345  39.26310
20       122.89154  38.60649         10.60952   0.170000 125.62345  39.26310 120.12348  39.24678 120.15978  37.94987 125.65975  37.96619
20       122.92814  37.30903         10.61837   0.170000 125.65975  37.96619 120.15978  37.94987 120.19668  36.65188 125.69665  36.66820
20       122.96535  36.01050         10.62722   0.170000 125.69665  36.66820 120.19668  36.65188 120.23418  35.35280 125.73416  35.36912
20       123.00316  34.71088         10.63608   0.170000 125.73416  35.36912 120.23418  35.35280 120.27231  34.05265 125.77229  34.06897
20       123.04160  33.41019         10.64494   0.170000 125.77229  34.06897 120.27231  34.05265 120.31106  32.75140 125.81104  32.76772
20       123.08067  32.10840         10.65382   0.170000 125.81104  32.76772 120.31106  32.75140 120.35045  31.44908 125.85042  31.46540
20       123.12038  30.80553         10.66270   0.170000 125.85042  31.46540 120.35045  31.44908 120.39048  30.14567 125.89046  30.16199
20       123.16073  29.50158         10.67159   0.170000 125.89046  30.16199 120.39048  30.14567 120.43117  28.84117 125.93114  28.85749
20       123.20175  28.19653         10.68049   0.170000 125.93114  28.85749 120.43117  28.84117 120.47251  27.53558 125.97249  27.55190
20       123.24343  26.89040         10.68939   0.170000 125.97249  27.55190 120.47251  27.53558 120.51453  26.22891 126.01451  26.24523
20       123.28579  25.58319         10.69830   0.170000 126.01451  26.24523 120.51453  26.22891 120.55723  24.92114 126.05720  24.93746
20       123.32883  24.27488         10.70722   0.170000 126.05720  24.93746 120.55723  24.92114 120.60061  23.61229 126.10059  23.62861
20       123.37256  22.96548         10.71615   0.170000 126.10059  23.62861 120.60061  23.61229 120.64470  22.30234 126.14467  22.31866
20       123.41700  21.65499         10.72508   0.170000 126.14467  22.31866 120.64470  22.30234 120.68949  20.99131 126.18947  21.00763
20       123.46215  20.34340         10.73402   0.170000 126.18947  21.00763 120.68949  20.99131 120.73500  19.67918 126.23498  19.69550
20       123.50802  19.03072         10.74297   0.170000 126.23498  19.69550 120.73500  19.67918 120.78123  18.36595 126.28121  18.38227
20       123.55462  17.71695         10.75193   0.170000 126.28121  18.38227 120.78123  18.36595 120.82820  17.05163 126.32818  17.06795
20       123.60196  16.40209         10.76089   0.170000 126.32818  17.06795 120.82820  17.05163 120.87592  15.73622 126.37589  15.75254
20       123.65005  15.08612         10.76986   0.170000 126.37589  15.75254 120.87592  15.73622 120.92438  14.41971 126.42436  14.43603
20       123.69890  13.76906         10.77884   0.170000 126.42436  14.43603 120.92438  14.41971 120.97361  13.10210 126.47359  13.11842
20       123.74851  12.45090         10.78783   0.170000 126.47359  13.11842 120.97361  13.10210 121.02362  11.78339 126.52359  11.79971
20       123.79890  11.13165         10.79682   0.170000 126.52359  11.79971 121.02362  11.78339 121.07440  10.46359 126.57438  10.47990
20       123.85008   9.81129         10.80582   0.170000 126.57438  10.47990 121.07440  10.46359 121.12598   9.14268 126.62595   9.15900
20       123.90206   8.48983         10.81483   0.170000 126.62595   9.15900 121.12598   9.14268 121.17835   7.82067 126.67833   7.83699
20       123.95484   7.16727         10.82385   0.170000 126.67833   7.83699 121.17835   7.82067 121.23154   6.49756 126.73152   6.51388
20       124.00844   5.84361         10.83287   0.170000 126.73152   6.51388 121.23154   6.49756 121.28555   5.17335 126.78552   5.18966
20       124.06286   4.51885         10.84190   0.170000 126.78552   5.18966 121.28555   5.17335 121.34039   3.84803 126.84036   3.86435
20       124.11811   3.19298         10.85094   0.170000 126.84036   3.86435 121.34039   3.84803 121.39606   2.52161 126.89604   2.53793
20       124.17421   1.86600         10.85999   0.170000 126.89604   2.53793 121.39606   2.52161 121.45259   1.19408 126.95256   1.21040
19       114.08612 127.39275         10.52148   0.230000 116.83196 128.01513 111.33200 127.99306 111.34037 126.77037 116.84033 126.79245
19       114.09468 126.16956         10.53025   0.230000 116.84033 126.79245 111.34037 126.77037 111.34912 125.54667 116.84907 125.56875
19       114.10361 124.94535         10.53903   0.230000 116.84907 125.56875 111.34912 125.54667 111.35823 124.32195 116.85818 124.34403
19       114.11290 123.72012         10.54781   0.230000 116.85818 124.34403 111.35823 124.32195 111.36770 123.09620 116.86766 123.11828
19       114.12256 122.49386         10.55661   0.230000 116.86766 123.11828 111.36770 123.09620 111.37754 121.86944 116.87750 121.89152
19       114.13258 121.26658         10.56541   0.230000 116.87750 121.89152 111.37754 121.86944 111.38775 120.64165 116.88770 120.66372
19       114.14296 120.03828         10.57421   0.230000 116.88770 120.66372 111.38775 120.64165 111.39830 119.41283 116.89826 119.43491
19       114.15370 118.80895         10.58303   0.230000 116.89826 119.43491 111.39830 119.41283 111.40922 118.18299 116.90917 118.20507
19       114.16479 117.57860         10.59185   0.230000 116.90917 118.20507 111.40922 118.18299 111.42049 116.95213 116.92044 116.97421
19       114.17623 116.34722         10.60068   0.230000 116.92044 116.97421 111.42049 116.95213 111.43210 115.72024 116.93206 115.74231
19       114.18802 115.11481         10.60952   0.230000 116.93206 115.74231 111.43210 115.72024 111.44407 114.48732 116.94403 114.50939
19       114.20016 113.88138         10.61837   0.230000 116.94403 114.50939 111.44407 114.48732 111.45638 113.25337 116.95634 113.27545
19       114.21264 112.64692         10.62722   0.230000 116.95634 113.27545 111.45638 113.25337 111.46904 112.01839 116.96899 112.04047
19       114.22547 111.41143         10.63608   0.230000 116.96899 112.04047 111.46904 112.01839 111.48203 110.78238 116.98199 110.80446
19       114.23863 110.17490         10.64494   0.230000 116.98199 110.80446 111.48203 110.78238 111.49536 109.54534 116.99532 109.56742
19       114.25213 108.93735         10.65382   0.230000 116.99532 109.56742 111.49536 109.54534 111.50903 108.30727 117.00899 108.32935
19       114.26597 107.69876         10.66270   0.230000 117.00899 108.32935 111.50903 108.30727 111.52303 107.06817 117.02298 107.09025
19       114.28013 106.45914         10.67159   0.230000 117.02298 107.09025 111.52303 107.06817 111.53736 105.82803 117.03731 105.85011
19       114.29462 105.21849         10.68049   0.230000 117.03731 105.85011 111.53736 105.82803 111.55201 104.58686 117.05197 104.60894
19       114.30944 103.97680         10.68939   0.230000 117.05197 104.60894 111.55201 104.58686 111.56699 103.34466 117.06695 103.36673
19       114.32458 102.73407         10.69830   0.230000 117.06695 103.36673 111.56699 103.34466 111.58230 102.10141 117.08225 102.12349
19       114.34005 101.49031         10.70722   0.230000 117.08225 102.12349 111.58230 102.10141 111.59792 100.85713 117.09787 100.87921
19       114.35582 100.24551         10.71615   0.230000 117.09787 100.87921 111.59792 100.85713 111.61385  99.61182 117.11381  99.63389
19       114.37192  98.99968         10.72508   0.230000 117.11381  99.63389 111.61385  99.61182 111.63010  98.36546 117.13006  98.38754
19       114.38832  97.75280         10.73402   0.230000 117.13006  98.38754 111.63010  98.36546 111.64666  97.11806 117.14662  97.14014
19       114.40504  96.50488         10.74297   0.230000 117.14662  97.14014 111.64666  97.11806 111.66353  95.86963 117.16349  95.89170
19       114.42206  95.25593         10.75193   0.230000 117.16349  95.89170 111.66353  95.86963 111.68070  94.62015 117.18066  94.64223
19       114.43938  94.00593         10.76089   0.230000 117.18066  94.64223 111.68070  94.62015 111.69818  93.36963 117.19813  93.39170
19       114.45701  92.75488         10.76986   0.230000 117.19813  93.39170 111.69818  93.36963 111.71595  92.11806 117.21591  92.14014
19       114.47493  91.50280         10.77884   0.230000 117.21591  92.14014 111.71595  92.11806 111.73402  90.86546 117.23398  90.88753
19       114.49315  90.24967         10.78783   0.230000 117.23398  90.88753 111.73402  90.86546 111.75238  89.61180 117.25234  89.63388
19       114.51165  88.99549         10.79682   0.230000 117.25234  89.63388 111.75238  89.61180 111.77104  88.35710 117.27099  88.37918
19       114.53045  87.74027         10.80582   0.230000 117.27099  88.37918 111.77104  88.35710 111.78998  87.10136 117.28993  87.12344
19       114.54954  86.48400         10.81483   0.230000 117.28993  87.12344 111.78998  87.10136 111.80920  85.84457 117.30916  85.86665
19       114.56890  85.22669         10.82385   0.230000 117.30916  85.86665 111.80920  85.84457 111.82871  84.58673 117.32867  84.60880
19       114.58855  83.96832         10.83287   0.230000 117.32867  84.60880 111.82871  84.58673 111.84850  83.32784 117.34845  83.34991
19       114.60847  82.70891         10.84190   0.230000 117.34845  83.34991 111.84850  83.32784 111.86856  82.06790 117.36852  82.08997
19       114.62867  81.44844         10.85094   0.230000 117.36852  82.08997 111.86856  82.06790 111.88889  80.80691 117.38885  80.82898
19       114.64914  80.18692         10.85999   0.230000 117.38885  80.82898 111.88889  80.80691 111.90950  79.54486 117.40945  79.56694
19       114.66988  78.92435         10.86904   0.230000 117.40945  79.56694 111.90950  79.54486 111.93037  78.28177 117.43032  78.30384
19       114.69088  77.66073         10.87810   0.230000 117.43032  78.30384 111.93037  78.28177 111.95150  77.01762 117.45146  77.03970
19       114.71215  76.39605         10.88717   0.230000 117.45146  77.03970 111.95150  77.01762 111.97290  75.75241 117.47285  75.77449
19       114.73367  75.13032         10.89625   0.230000 117.47285  75.77449 111.97290  75.75241 111.99455  74.48615 117.49450  74.50823
