\version S15.0 wavsamp for SH
\wavsamp processing time 14:56:24 PST 10/24/2006
\character channelID = 1
| order |x_center |y_center |   wavelength   |  angle   |   x0    |   y0    |   x1    |   y1    |   x2    |   y2    |   x3    |   y3    |
| int   |  real   |  real   |    real        |   real   |  real   |  real   |  real   |  real   |  real   |  real   |  real   |  real   |
      20 120.49755 128.33631          9.86350   2.775983 123.29963 128.94459 117.68122 128.67225 117.69550 127.72794 123.31390 128.00045
      20 120.51186 127.39171          9.87109   2.777752 123.31390 128.00045 117.69550 127.72794 117.70985 126.78287 123.32824 127.05556
      20 120.52624 126.44635          9.87869   2.779524 123.32824 127.05556 117.70985 126.78287 117.72427 125.83704 123.34265 126.10990
      20 120.54069 125.50023          9.88629   2.781298 123.34265 126.10990 117.72427 125.83704 117.73876 124.89045 123.35713 125.16349
      20 120.55521 124.55334          9.89390   2.783075 123.35713 125.16349 117.73876 124.89045 117.75332 123.94310 123.37168 124.21631
      20 120.56980 123.60570          9.90151   2.784854 123.37168 124.21631 117.75332 123.94310 117.76795 122.99499 123.38630 123.26837
      20 120.58447 122.65729          9.90913   2.786635 123.38630 123.26837 117.76795 122.99499 117.78265 122.04611 123.40099 122.31967
      20 120.59920 121.70811          9.91675   2.788420 123.40099 122.31967 117.78265 122.04611 117.79742 121.09647 123.41576 121.37020
      20 120.61400 120.75818          9.92439   2.790206 123.41576 121.37020 117.79742 121.09647 117.81226 120.14606 123.43059 120.41997
      20 120.62887 119.80748          9.93202   2.791996 123.43059 120.41997 117.81226 120.14606 117.82718 119.19489 123.44549 119.46897
      20 120.64382 118.85601          9.93967   2.793787 123.44549 119.46897 117.82718 119.19489 117.84216 118.24295 123.46047 118.51721
      20 120.65883 117.90378          9.94731   2.795582 123.46047 118.51721 117.84216 118.24295 117.85722 117.29025 123.47552 117.56468
      20 120.67392 116.95078          9.95497   2.797378 123.47552 117.56468 117.85722 117.29025 117.87234 116.33678 123.49063 116.61139
      20 120.68908 115.99701          9.96263   2.799178 123.49063 116.61139 117.87234 116.33678 117.88754 115.38254 123.50583 115.65733
      20 120.70431 115.04248          9.97030   2.800980 123.50583 115.65733 117.88754 115.38254 117.90281 114.42753 123.52109 114.70250
      20 120.71961 114.08717          9.97797   2.802784 123.52109 114.70250 117.90281 114.42753 117.91815 113.47176 123.53642 113.74690
      20 120.73498 113.13110          9.98565   2.804591 123.53642 113.74690 117.91815 113.47176 117.93357 112.51521 123.55183 112.79053
      20 120.75043 112.17426          9.99333   2.806401 123.55183 112.79053 117.93357 112.51521 117.94905 111.55789 123.56730 111.83339
      20 120.76595 111.21665         10.00102   2.808213 123.56730 111.83339 117.94905 111.55789 117.96461 110.59981 123.58285 110.87548
      20 120.78154 110.25826         10.00872   2.810028 123.58285 110.87548 117.96461 110.59981 117.98024 109.64095 123.59848 109.91680
      20 120.79720 109.29911         10.01642   2.811845 123.59848 109.91680 117.98024 109.64095 117.99595 108.68132 123.61417 108.95735
      20 120.81294 108.33918         10.02413   2.813665 123.61417 108.95735 117.99595 108.68132 118.01173 107.72092 123.62994 107.99713
      20 120.82875 107.37848         10.03184   2.815488 123.62994 107.99713 118.01173 107.72092 118.02758 106.75974 123.64578 107.03613
      20 120.84463 106.41701         10.03956   2.817313 123.64578 107.03613 118.02758 106.75974 118.04350 105.79779 123.66169 106.07436
      20 120.86058 105.45476         10.04729   2.819140 123.66169 106.07436 118.04350 105.79779 118.05949 104.83506 123.67768 105.11181
      20 120.87661 104.49173         10.05502   2.820971 123.67768 105.11181 118.05949 104.83506 118.07556 103.87156 123.69374 104.14849
      20 120.89271 103.52794         10.06276   2.822803 123.69374 104.14849 118.07556 103.87156 118.09171 102.90728 123.70988 103.18439
      20 120.90889 102.56336         10.07050   2.824639 123.70988 103.18439 118.09171 102.90728 118.10792 101.94223 123.72608 102.21952
      20 120.92514 101.59801         10.07825   2.826477 123.72608 102.21952 118.10792 101.94223 118.12421 100.97640 123.74237 101.25387
      20 120.94146 100.63188         10.08600   2.828318 123.74237 101.25387 118.12421 100.97640 118.14058 100.00979 123.75872 100.28744
      20 120.95786  99.66497         10.09377   2.830161 123.75872 100.28744 118.14058 100.00979 118.15702  99.04240 123.77515  99.32023
      20 120.97433  98.69728         10.10153   2.832007 123.77515  99.32023 118.15702  99.04240 118.17353  98.07423 123.79166  98.35224
      20 120.99088  97.72881         10.10931   2.833855 123.79166  98.35224 118.17353  98.07423 118.19012  97.10529 123.80823  97.38348
      20 121.00750  96.75957         10.11709   2.835706 123.80823  97.38348 118.19012  97.10529 118.20678  96.13556 123.82489  96.41393
      20 121.02419  95.78954         10.12487   2.837560 123.82489  96.41393 118.20678  96.13556 118.22352  95.16505 123.84161  95.44360
      20 121.04096  94.81873         10.13266   2.839417 123.84161  95.44360 118.22352  95.16505 118.24033  94.19376 123.85842  94.47249
      20 121.05781  93.84714         10.14046   2.841276 123.85842  94.47249 118.24033  94.19376 118.25721  93.22168 123.87529  93.50060
      20 121.07473  92.87476         10.14826   2.843137 123.87529  93.50060 118.25721  93.22168 118.27418  92.24883 123.89225  92.52793
      20 121.09172  91.90161         10.15607   2.845002 123.89225  92.52793 118.27418  92.24883 118.29121  91.27518 123.90928  91.55447
      20 121.10879  90.92766         10.16389   2.846868 123.90928  91.55447 118.29121  91.27518 118.30833  90.30076 123.92638  90.58022
      20 121.12594  89.95294         10.17171   2.848738 123.92638  90.58022 118.30833  90.30076 118.32551  89.32555 123.94356  89.60520
      20 121.14316  88.97742         10.17954   2.850610 123.94356  89.60520 118.32551  89.32555 118.34278  88.34955 123.96081  88.62938
      20 121.16046  88.00113         10.18737   2.852485 123.96081  88.62938 118.34278  88.34955 118.36012  87.37277 123.97815  87.65278
      20 121.17783  87.02404         10.19521   2.854363 123.97815  87.65278 118.36012  87.37277 118.37754  86.39519 123.99555  86.67540
      20 121.19528  86.04617         10.20306   2.856243 123.99555  86.67540 118.37754  86.39519 118.39503  85.41684 124.01304  85.69722
      20 121.21281  85.06751         10.21091   2.858126 124.01304  85.69722 118.39503  85.41684 118.41260  84.43769 124.03060  84.71826
      20 121.23041  84.08806         10.21876   2.860012 124.03060  84.71826 118.41260  84.43769 118.43024  83.45775 124.04823  83.73851
      20 121.24809  83.10782         10.22663   2.861900 124.04823  83.73851 118.43024  83.45775 118.44797  82.47703 124.06595  82.75797
      20 121.26584  82.12679         10.23450   2.863791 124.06595  82.75797 118.44797  82.47703 118.46576  81.49551 124.08374  81.77664
      20 121.28368  81.14497         10.24237   2.865685 124.08374  81.77664 118.46576  81.49551 118.48364  80.51320 124.10160  80.79451
      20 121.30159  80.16236         10.25026   2.867581 124.10160  80.79451 118.48364  80.51320 118.50160  79.53010 124.11955  79.81160
      20 121.31958  79.17895         10.25814   2.869480 124.11955  79.81160 118.50160  79.53010 118.51963  78.54621 124.13757  78.82789
      20 121.33764  78.19476         10.26604   2.871382 124.13757  78.82789 118.51963  78.54621 118.53773  77.56152 124.15567  77.84339
      20 121.35578  77.20977         10.27394   2.873286 124.15567  77.84339 118.53773  77.56152 118.55592  76.57604 124.17384  76.85810
      20 121.37400  76.22398         10.28184   2.875193 124.17384  76.85810 118.55592  76.57604 118.57419  75.58977 124.19210  75.87201
      20 121.39230  75.23741         10.28976   2.877103 124.19210  75.87201 118.57419  75.58977 118.59253  74.60270 124.21043  74.88513
      20 121.41068  74.25003         10.29767   2.879016 124.21043  74.88513 118.59253  74.60270 118.61095  73.61483 124.22884  73.89745
      20 121.42913  73.26186         10.30560   2.880931 124.22884  73.89745 118.61095  73.61483 118.62945  72.62617 124.24733  72.90898
      20 121.44767  72.27290         10.31353   2.882849 124.24733  72.90898 118.62945  72.62617 118.64802  71.63671 124.26590  71.91971
      20 121.46628  71.28313         10.32146   2.884770 124.26590  71.91971 118.64802  71.63671 118.66668  70.64645 124.28455  70.92964
      20 121.48497  70.29257         10.32941   2.886693 124.28455  70.92964 118.66668  70.64645 118.68541  69.65540 124.30327  69.93877
      20 121.50374  69.30121         10.33736   2.888620 124.30327  69.93877 118.68541  69.65540 118.70423  68.66354 124.32208  68.94711
      20 121.52259  68.30905         10.34531   2.890549 124.32208  68.94711 118.70423  68.66354 118.72312  67.67089 124.34096  67.95464
      20 121.54152  67.31609         10.35327   2.892480 124.34096  67.95464 118.72312  67.67089 118.74209  66.67743 124.35992  66.96138
      20 121.56052  66.32233         10.36124   2.894415 124.35992  66.96138 118.74209  66.67743 118.76114  65.68318 124.37896  65.96731
      20 121.57961  65.32777         10.36921   2.896352 124.37896  65.96731 118.76114  65.68318 118.78028  64.68812 124.39809  64.97244
      20 121.59878  64.33240         10.37719   2.898292 124.39809  64.97244 118.78028  64.68812 118.79949  63.69226 124.41729  63.97677
      20 121.61802  63.33623         10.38518   2.900235 124.41729  63.97677 118.79949  63.69226 118.81878  62.69559 124.43657  62.98030
      20 121.63735  62.33926         10.39317   2.902180 124.43657  62.98030 118.81878  62.69559 118.83815  61.69812 124.45593  61.98302
      20 121.65675  61.34149         10.40117   2.904129 124.45593  61.98302 118.83815  61.69812 118.85760  60.69985 124.47537  60.98494
      20 121.67624  60.34291         10.40917   2.906080 124.47537  60.98494 118.85760  60.69985 118.87713  59.70077 124.49489  59.98605
      20 121.69581  59.34352         10.41718   2.908034 124.49489  59.98605 118.87713  59.70077 118.89674  58.70089 124.51449  58.98636
      20 121.71545  58.34333         10.42520   2.909990 124.51449  58.98636 118.89674  58.70089 118.91644  57.70020 124.53418  57.98586
      20 121.73518  57.34233         10.43322   2.911950 124.53418  57.98586 118.91644  57.70020 118.93621  56.69870 124.55394  56.98455
      20 121.75499  56.34053         10.44125   2.913912 124.55394  56.98455 118.93621  56.69870 118.95606  55.69639 124.57379  55.98244
      20 121.77488  55.33791         10.44928   2.915877 124.57379  55.98244 118.95606  55.69639 118.97600  54.69328 124.59371  54.97952
      20 121.79486  54.33449         10.45732   2.917845 124.59371  54.97952 118.97600  54.69328 118.99602  53.68936 124.61372  53.97579
      20 121.81491  53.33026         10.46537   2.919815 124.61372  53.97579 118.99602  53.68936 119.01612  52.68462 124.63381  52.97125
      20 121.83504  52.32522         10.47342   2.921789 124.63381  52.97125 119.01612  52.68462 119.03630  51.67908 124.65398  51.96590
      20 121.85526  51.31936         10.48148   2.923765 124.65398  51.96590 119.03630  51.67908 119.05656  50.67272 124.67423  50.95973
      20 121.87556  50.31270         10.48955   2.925744 124.67423  50.95973 119.05656  50.67272 119.07691  49.66555 124.69457  49.95276
      20 121.89594  49.30522         10.49762   2.927726 124.69457  49.95276 119.07691  49.66555 119.09733  48.65757 124.71499  48.94497
      20 121.91640  48.29693         10.50570   2.929711 124.71499  48.94497 119.09733  48.65757 119.11784  47.64878 124.73549  47.93637
      20 121.93695  47.28782         10.51378   2.931698 124.73549  47.93637 119.11784  47.64878 119.13844  46.63917 124.75607  46.92696
      20 121.95758  46.27791         10.52188   2.933689 124.75607  46.92696 119.13844  46.63917 119.15911  45.62875 124.77673  45.91673
      20 121.97829  45.26717         10.52997   2.935682 124.77673  45.91673 119.15911  45.62875 119.17987  44.61751 124.79748  44.90569
      20 121.99908  44.25562         10.53808   2.937678 124.79748  44.90569 119.17987  44.61751 119.20071  43.60545 124.81831  43.89383
      20 122.01996  43.24326         10.54618   2.939677 124.81831  43.89383 119.20071  43.60545 119.22163  42.59258 124.83923  42.88115
      20 122.04092  42.23008         10.55430   2.941679 124.83923  42.88115 119.22163  42.59258 119.24264  41.57889 124.86022  41.86766
      20 122.06197  41.21607         10.56242   2.943683 124.86022  41.86766 119.24264  41.57889 119.26373  40.56438 124.88130  40.85335
      20 122.08309  40.20126         10.57055   2.945691 124.88130  40.85335 119.26373  40.56438 119.28491  39.54906 124.90247  39.83822
      20 122.10430  39.18562         10.57868   2.947701 124.90247  39.83822 119.28491  39.54906 119.30616  38.53291 124.92372  38.82227
      20 122.12560  38.16916         10.58683   2.949714 124.92372  38.82227 119.30616  38.53291 119.32751  37.51594 124.94505  37.80550
      20 122.14698  37.15188         10.59497   2.951730 124.94505  37.80550 119.32751  37.51594 119.34893  36.49815 124.96647  36.78791
      20 122.16844  36.13378         10.60313   2.953749 124.96647  36.78791 119.34893  36.49815 119.37044  35.47955 124.98797  35.76950
      20 122.18999  35.11486         10.61128   2.955771 124.98797  35.76950 119.37044  35.47955 119.39204  34.46011 125.00955  34.75027
      20 122.21163  34.09512         10.61945   2.957796 125.00955  34.75027 119.39204  34.46011 119.41372  33.43986 125.03122  33.73021
      20 122.23334  33.07455         10.62762   2.959824 125.03122  33.73021 119.41372  33.43986 119.43549  32.41878 125.05298  32.70933
      20 122.25515  32.05316         10.63580   2.961854 125.05298  32.70933 119.43549  32.41878 119.45734  31.39688 125.07482  31.68763
      20 122.27703  31.03094         10.64398   2.963888 125.07482  31.68763 119.45734  31.39688 119.47927  30.37415 125.09674  30.66510
      20 122.29901  30.00790         10.65218   2.965924 125.09674  30.66510 119.47927  30.37415 119.50129  29.35059 125.11875  29.64174
      20 122.32107  28.98403         10.66037   2.967963 125.11875  29.64174 119.50129  29.35059 119.52340  28.32621 125.14085  28.61756
      20 122.34321  27.95934         10.66858   2.970005 125.14085  28.61756 119.52340  28.32621 119.54559  27.30101 125.16303  27.59256
      20 122.36544  26.93382         10.67679   2.972051 125.16303  27.59256 119.54559  27.30101 119.56787  26.27497 125.18530  26.56672
      20 122.38776  25.90747         10.68500   2.974099 125.18530  26.56672 119.56787  26.27497 119.59024  25.24811 125.20765  25.54006
      20 122.41016  24.88029         10.69322   2.976150 125.20765  25.54006 119.59024  25.24811 119.61269  24.22041 125.23010  24.51256
      20 122.43265  23.85228         10.70145   2.978203 125.23010  24.51256 119.61269  24.22041 119.63522  23.19189 125.25262  23.48424
      19 113.44622 128.18901         10.37719   2.875645 116.25109 128.80229 110.63317 128.52019 110.64137 127.57563 116.25928 127.85792
      19 113.45447 127.24417         10.38518   2.877582 116.25928 127.85792 110.64137 127.57563 110.64968 126.63031 116.26758 126.91280
      19 113.46282 126.29857         10.39317   2.879522 116.26758 126.91280 110.64968 126.63031 110.65809 125.68423 116.27599 125.96690
      19 113.47128 125.35220         10.40117   2.881465 116.27599 125.96690 110.65809 125.68423 110.66661 124.73739 116.28449 125.02025
      19 113.47985 124.40507         10.40917   2.883411 116.28449 125.02025 110.66661 124.73739 110.67523 123.78978 116.29311 124.07283
      19 113.48852 123.45717         10.41718   2.885359 116.29311 124.07283 110.67523 123.78978 110.68396 122.84141 116.30182 123.12465
      19 113.49729 122.50851         10.42520   2.887311 116.30182 123.12465 110.68396 122.84141 110.69279 121.89227 116.31064 122.17571
      19 113.50617 121.55909         10.43322   2.889265 116.31064 122.17571 110.69279 121.89227 110.70173 120.94237 116.31957 121.22600
      19 113.51515 120.60890         10.44125   2.891222 116.31957 121.22600 110.70173 120.94237 110.71077 119.99170 116.32860 120.27552
      19 113.52424 119.65795         10.44928   2.893182 116.32860 120.27552 110.71077 119.99170 110.71992 119.04026 116.33774 119.32428
      19 113.53344 118.70622         10.45732   2.895146 116.33774 119.32428 110.71992 119.04026 110.72917 118.08806 116.34698 118.37227
      19 113.54274 117.75373         10.46537   2.897112 116.34698 118.37227 110.72917 118.08806 110.73853 117.13509 116.35633 117.41949
      19 113.55215 116.80047         10.47342   2.899081 116.35633 117.41949 110.73853 117.13509 110.74800 116.18135 116.36579 116.46595
      19 113.56166 115.84645         10.48148   2.901052 116.36579 116.46595 110.74800 116.18135 110.75757 115.22685 116.37535 115.51163
      19 113.57129 114.89165         10.48955   2.903027 116.37535 115.51163 110.75757 115.22685 110.76725 114.27157 116.38502 114.55655
      19 113.58101 113.93608         10.49762   2.905005 116.38502 114.55655 110.76725 114.27157 110.77704 113.31552 116.39480 113.60069
      19 113.59085 112.97975         10.50570   2.906986 116.39480 113.60069 110.77704 113.31552 110.78693 112.35870 116.40469 112.64407
      19 113.60079 112.02264         10.51378   2.908969 116.40469 112.64407 110.78693 112.35870 110.79693 111.40111 116.41468 111.68667
      19 113.61084 111.06476         10.52188   2.910956 116.41468 111.68667 110.79693 111.40111 110.80704 110.44274 116.42478 110.72850
      19 113.62100 110.10610         10.52997   2.912945 116.42478 110.72850 110.80704 110.44274 110.81726 109.48360 116.43499 109.76956
      19 113.63127 109.14668         10.53808   2.914938 116.43499 109.76956 110.81726 109.48360 110.82759 108.52369 116.44530 108.80984
      19 113.64165 108.18648         10.54618   2.916933 116.44530 108.80984 110.82759 108.52369 110.83802 107.56301 116.45573 107.84935
      19 113.65213 107.22550         10.55430   2.918932 116.45573 107.84935 110.83802 107.56301 110.84856 106.60155 116.46626 106.88809
      19 113.66272 106.26375         10.56242   2.920933 116.46626 106.88809 110.84856 106.60155 110.85922 105.63931 116.47690 105.92605
      19 113.67343 105.30122         10.57055   2.922938 116.47690 105.92605 110.85922 105.63931 110.86998 104.67630 116.48766 104.96323
      19 113.68424 104.33792         10.57868   2.924945 116.48766 104.96323 110.86998 104.67630 110.88085 103.71251 116.49852 103.99964
      19 113.69516 103.37384         10.58683   2.926955 116.49852 103.99964 110.88085 103.71251 110.89183 102.74794 116.50949 103.03527
      19 113.70619 102.40898         10.59497   2.928969 116.50949 103.03527 110.89183 102.74794 110.90292 101.78259 116.52057 102.07012
      19 113.71733 101.44335         10.60313   2.930985 116.52057 102.07012 110.90292 101.78259 110.91412 100.81647 116.53176 101.10419
      19 113.72858 100.47693         10.61128   2.933004 116.53176 101.10419 110.91412 100.81647 110.92543  99.84956 116.54306 100.13748
      19 113.73994  99.50973         10.61945   2.935027 116.54306 100.13748 110.92543  99.84956 110.93686  98.88188 116.55447  99.16999
      19 113.75142  98.54176         10.62762   2.937052 116.55447  99.16999 110.93686  98.88188 110.94839  97.91341 116.56600  98.20173
      19 113.76300  97.57300         10.63580   2.939080 116.56600  98.20173 110.94839  97.91341 110.96004  96.94416 116.57763  97.23268
      19 113.77470  96.60346         10.64398   2.941112 116.57763  97.23268 110.96004  96.94416 110.97179  95.97413 116.58938  96.26285
      19 113.78650  95.63314         10.65218   2.943146 116.58938  96.26285 110.97179  95.97413 110.98366  95.00332 116.60123  95.29223
      19 113.79842  94.66203         10.66037   2.945183 116.60123  95.29223 110.98366  95.00332 110.99564  94.03172 116.61320  94.32084
