\wavsamp version 5.0 (Thu May  9 10:19:35 PDT 2002)
\processing time 16:41:38 PST 07/25/2002
\character channelID = 3
| order |x_center |y_center |   wavelength   |  angle   |   x0    |   y0    |   x1    |   y1    |   x2    |   y2    |   x3    |   y3    |
| int   |  real   |  real   |    real        |   real   |  real   |  real   |  real   |  real   |  real   |  real   |  real   |  real   |
      20   8.05075   0.99702         18.95570   0.000000  11.06228   0.46929   5.06228   0.46929   5.03929   1.52476  11.03929   1.52476
      20   8.02788   2.05294         18.97150   0.000000  11.03929   1.52476   5.03929   1.52476   5.01653   2.58111  11.01653   2.58111
      20   8.00523   3.10973         18.98732   0.000000  11.01653   2.58111   5.01653   2.58111   4.99399   3.63835  10.99399   3.63835
      20   7.98280   4.16740         19.00315   0.000000  10.99399   3.63835   4.99399   3.63835   4.97167   4.69646  10.97167   4.69646
      20   7.96058   5.22596         19.01899   0.000000  10.97167   4.69646   4.97167   4.69646   4.94955   5.75546  10.94955   5.75546
      20   7.93857   6.28540         19.03485   0.000000  10.94955   5.75546   4.94955   5.75546   4.92763   6.81534  10.92763   6.81534
      20   7.91675   7.34572         19.05072   0.000000  10.92763   6.81534   4.92763   6.81534   4.90591   7.87610  10.90591   7.87610
      20   7.89512   8.40692         19.06660   0.000000  10.90591   7.87610   4.90591   7.87610   4.88438   8.93775  10.88438   8.93775
      20   7.87368   9.46901         19.08249   0.000000  10.88438   8.93775   4.88438   8.93775   4.86303  10.00028  10.86303  10.00028
      20   7.85241  10.53199         19.09840   0.000000  10.86303  10.00028   4.86303  10.00028   4.84185  11.06370  10.84185  11.06370
      20   7.83132  11.59585         19.11432   0.000000  10.84185  11.06370   4.84185  11.06370   4.82084  12.12800  10.82084  12.12800
      20   7.81039  12.66060         19.13026   0.000000  10.82084  12.12800   4.82084  12.12800   4.79999  13.19320  10.79999  13.19320
      20   7.78962  13.72624         19.14621   0.000000  10.79999  13.19320   4.79999  13.19320   4.77930  14.25928  10.77930  14.25928
      20   7.76900  14.79276         19.16217   0.000000  10.77930  14.25928   4.77930  14.25928   4.75875  15.32624  10.75875  15.32624
      20   7.74853  15.86017         19.17814   0.000000  10.75875  15.32624   4.75875  15.32624   4.73835  16.39410  10.73835  16.39410
      20   7.72819  16.92848         19.19413   0.000000  10.73835  16.39410   4.73835  16.39410   4.71808  17.46285  10.71808  17.46285
      20   7.70799  17.99767         19.21014   0.000000  10.71808  17.46285   4.71808  17.46285   4.69793  18.53249  10.69793  18.53249
      20   7.68790  19.06776         19.22615   0.000000  10.69793  18.53249   4.69793  18.53249   4.67791  19.60302  10.67791  19.60302
      20   7.66794  20.13874         19.24218   0.000000  10.67791  19.60302   4.67791  19.60302   4.65800  20.67445  10.65800  20.67445
      20   7.64808  21.21061         19.25822   0.000000  10.65800  20.67445   4.65800  20.67445   4.63820  21.74676  10.63820  21.74676
      20   7.62833  22.28337         19.27428   0.000000  10.63820  21.74676   4.63820  21.74676   4.61849  22.81998  10.61849  22.81998
      20   7.60867  23.35703         19.29034   0.000000  10.61849  22.81998   4.61849  22.81998   4.59888  23.89408  10.59888  23.89408
      20   7.58911  24.43158         19.30643   0.000000  10.59888  23.89408   4.59888  23.89408   4.57936  24.96908  10.57936  24.96908
      20   7.56962  25.50703         19.32252   0.000000  10.57936  24.96908   4.57936  24.96908   4.55991  26.04498  10.55991  26.04498
      20   7.55021  26.58338         19.33863   0.000000  10.55991  26.04498   4.55991  26.04498   4.54053  27.12177  10.54053  27.12177
      20   7.53086  27.66062         19.35475   0.000000  10.54053  27.12177   4.54053  27.12177   4.52122  28.19947  10.52122  28.19947
      20   7.51158  28.73876         19.37089   0.000000  10.52122  28.19947   4.52122  28.19947   4.50196  29.27806  10.50196  29.27806
      20   7.49235  29.81780         19.38704   0.000000  10.50196  29.27806   4.50196  29.27806   4.48275  30.35755  10.48275  30.35755
      20   7.47316  30.89774         19.40320   0.000000  10.48275  30.35755   4.48275  30.35755   4.46359  31.43794  10.46359  31.43794
      20   7.45402  31.97858         19.41938   0.000000  10.46359  31.43794   4.46359  31.43794   4.44446  32.51923  10.44446  32.51923
      20   7.43490  33.06032         19.43557   0.000000  10.44446  32.51923   4.44446  32.51923   4.42536  33.60142  10.42536  33.60142
      20   7.41581  34.14297         19.45177   0.000000  10.42536  33.60142   4.42536  33.60142   4.40627  34.68451  10.40627  34.68451
      20   7.39673  35.22651         19.46799   0.000000  10.40627  34.68451   4.40627  34.68451   4.38720  35.76851  10.38720  35.76851
      20   7.37767  36.31096         19.48422   0.000000  10.38720  35.76851   4.38720  35.76851   4.36814  36.85341  10.36814  36.85341
      20   7.35860  37.39631         19.50046   0.000000  10.36814  36.85341   4.36814  36.85341   4.34907  37.93922  10.34907  37.93922
      20   7.33953  38.48257         19.51672   0.000000  10.34907  37.93922   4.34907  37.93922   4.32999  39.02593  10.32999  39.02593
      20   7.32044  39.56973         19.53299   0.000000  10.32999  39.02593   4.32999  39.02593   4.31089  40.11354  10.31089  40.11354
      20   7.30133  40.65780         19.54927   0.000000  10.31089  40.11354   4.31089  40.11354   4.29177  41.20207  10.29177  41.20207
      20   7.28220  41.74678         19.56557   0.000000  10.29177  41.20207   4.29177  41.20207   4.27262  42.29150  10.27262  42.29150
      20   7.26302  42.83667         19.58188   0.000000  10.27262  42.29150   4.27262  42.29150   4.25342  43.38184  10.25342  43.38184
      20   7.24380  43.92746         19.59821   0.000000  10.25342  43.38184   4.25342  43.38184   4.23418  44.47308  10.23418  44.47308
      20   7.22453  45.01916         19.61454   0.000000  10.23418  44.47308   4.23418  44.47308   4.21488  45.56524  10.21488  45.56524
      20   7.20520  46.11177         19.63090   0.000000  10.21488  45.56524   4.21488  45.56524   4.19551  46.65831  10.19551  46.65831
      20   7.18580  47.20530         19.64726   0.000000  10.19551  46.65831   4.19551  46.65831   4.17607  47.75229  10.17607  47.75229
      20   7.16632  48.29973         19.66364   0.000000  10.17607  47.75229   4.17607  47.75229   4.15656  48.84718  10.15656  48.84718
      20   7.14676  49.39508         19.68004   0.000000  10.15656  48.84718   4.15656  48.84718   4.13695  49.94298  10.13695  49.94298
      20   7.12711  50.49134         19.69644   0.000000  10.13695  49.94298   4.13695  49.94298   4.11725  51.03970  10.11725  51.03970
      20   7.10736  51.58852         19.71286   0.000000  10.11725  51.03970   4.11725  51.03970   4.09745  52.13733  10.09745  52.13733
      20   7.08750  52.68661         19.72930   0.000000  10.09745  52.13733   4.09745  52.13733   4.07753  53.23588  10.07753  53.23588
      20   7.06752  53.78561         19.74574   0.000000  10.07753  53.23588   4.07753  53.23588   4.05749  54.33534  10.05749  54.33534
      20   7.04742  54.88553         19.76221   0.000000  10.05749  54.33534   4.05749  54.33534   4.03733  55.43572  10.03733  55.43572
      20   7.02719  55.98637         19.77868   0.000000  10.03733  55.43572   4.03733  55.43572   4.01702  56.53702  10.01702  56.53702
      20   7.00682  57.08813         19.79517   0.000000  10.01702  56.53702   4.01702  56.53702   3.99658  57.63923   9.99658  57.63923
      20   6.98629  58.19080         19.81167   0.000000   9.99658  57.63923   3.99658  57.63923   3.97598  58.74237   9.97598  58.74237
      20   6.96562  59.29440         19.82819   0.000000   9.97598  58.74237   3.97598  58.74237   3.95522  59.84642   9.95522  59.84642
      20   6.94477  60.39891         19.84472   0.000000   9.95522  59.84642   3.95522  59.84642   3.93429  60.95140   9.93429  60.95140
      20   6.92375  61.50434         19.86126   0.000000   9.93429  60.95140   3.93429  60.95140   3.91318  62.05729   9.91318  62.05729
      20   6.90255  62.61070         19.87782   0.000000   9.91318  62.05729   3.91318  62.05729   3.89188  63.16411   9.89188  63.16411
      20   6.88116  63.71798         19.89439   0.000000   9.89188  63.16411   3.89188  63.16411   3.87039  64.27185   9.87039  64.27185
      20   6.85957  64.82618         19.91098   0.000000   9.87039  64.27185   3.87039  64.27185   3.84870  65.38051   9.84870  65.38051
      20   6.83777  65.93531         19.92758   0.000000   9.84870  65.38051   3.84870  65.38051   3.82679  66.49010   9.82679  66.49010
      20   6.81575  67.04536         19.94419   0.000000   9.82679  66.49010   3.82679  66.49010   3.80466  67.60061   9.80466  67.60061
      20   6.79351  68.15633         19.96082   0.000000   9.80466  67.60061   3.80466  67.60061   3.78231  68.71205   9.78231  68.71205
      20   6.77104  69.26823         19.97746   0.000000   9.78231  68.71205   3.78231  68.71205   3.75971  69.82442   9.75971  69.82442
      20   6.74832  70.38106         19.99412   0.000000   9.75971  69.82442   3.75971  69.82442   3.73687  70.93771   9.73687  70.93771
      20   6.72536  71.49482         20.01078   0.000000   9.73687  70.93771   3.73687  70.93771   3.71378  72.05193   9.71378  72.05193
      20   6.70213  72.60950         20.02747   0.000000   9.71378  72.05193   3.71378  72.05193   3.69042  73.16708   9.69042  73.16708
      20   6.67863  73.72512         20.04416   0.000000   9.69042  73.16708   3.69042  73.16708   3.66678  74.28316   9.66678  74.28316
      20   6.65486  74.84166         20.06087   0.000000   9.66678  74.28316   3.66678  74.28316   3.64287  75.40017   9.64287  75.40017
      20   6.63080  75.95914         20.07760   0.000000   9.64287  75.40017   3.64287  75.40017   3.61866  76.51811   9.61866  76.51811
      20   6.60644  77.07754         20.09434   0.000000   9.61866  76.51811   3.61866  76.51811   3.59416  77.63698   9.59416  77.63698
      20   6.58178  78.19688         20.11109   0.000000   9.59416  77.63698   3.59416  77.63698   3.56934  78.75679   9.56934  78.75679
      20   6.55681  79.31716         20.12786   0.000000   9.56934  78.75679   3.56934  78.75679   3.54421  79.87753   9.54421  79.87753
      20   6.53151  80.43836         20.14464   0.000000   9.54421  79.87753   3.54421  79.87753   3.51875  80.99920   9.51875  80.99920
      20   6.50589  81.56050         20.16143   0.000000   9.51875  80.99920   3.51875  80.99920   3.49295  82.12181   9.49295  82.12181
      20   6.47992  82.68358         20.17824   0.000000   9.49295  82.12181   3.49295  82.12181   3.46681  83.24535   9.46681  83.24535
      20   6.45360  83.80759         20.19506   0.000000   9.46681  83.24535   3.46681  83.24535   3.44031  84.36983   9.44031  84.36983
      20   6.42692  84.93254         20.21190   0.000000   9.44031  84.36983   3.44031  84.36983   3.41345  85.49525   9.41345  85.49525
      20   6.39988  86.05843         20.22875   0.000000   9.41345  85.49525   3.41345  85.49525   3.38621  86.62161   9.38621  86.62161
      20   6.37245  87.18526         20.24561   0.000000   9.38621  86.62161   3.38621  86.62161   3.35860  87.74891   9.35860  87.74891
      20   6.34464  88.31302         20.26249   0.000000   9.35860  87.74891   3.35860  87.74891   3.33059  88.87714   9.33059  88.87714
      20   6.31643  89.44173         20.27938   0.000000   9.33059  88.87714   3.33059  88.87714   3.30218  90.00632   9.30218  90.00632
      20   6.28782  90.57138         20.29629   0.000000   9.30218  90.00632   3.30218  90.00632   3.27336  91.13644   9.27336  91.13644
      20   6.25878  91.70197         20.31321   0.000000   9.27336  91.13644   3.27336  91.13644   3.24411  92.26750   9.24411  92.26750
      20   6.22933  92.83350         20.33014   0.000000   9.24411  92.26750   3.24411  92.26750   3.21444  93.39950   9.21444  93.39950
      20   6.19944  93.96597         20.34709   0.000000   9.21444  93.39950   3.21444  93.39950   3.18433  94.53245   9.18433  94.53245
      20   6.16910  95.09939         20.36406   0.000000   9.18433  94.53245   3.18433  94.53245   3.15377  95.66634   9.15377  95.66634
      20   6.13831  96.23376         20.38103   0.000000   9.15377  95.66634   3.15377  95.66634   3.12275  96.80117   9.12275  96.80117
      20   6.10706  97.36906         20.39802   0.000000   9.12275  96.80117   3.12275  96.80117   3.09126  97.93696   9.09126  97.93696
      20   6.07533  98.50532         20.41503   0.000000   9.09126  97.93696   3.09126  97.93696   3.05929  99.07369   9.05929  99.07369
      20   6.04312  99.64252         20.43205   0.000000   9.05929  99.07369   3.05929  99.07369   3.02683 100.21136   9.02683 100.21136
      20   6.01041 100.78068         20.44908   0.000000   9.02683 100.21136   3.02683 100.21136   2.99387 101.34999   8.99387 101.34999
      20   5.97720 101.91978         20.46613   0.000000   8.99387 101.34999   2.99387 101.34999   2.96041 102.48956   8.96041 102.48956
      20   5.94348 103.05983         20.48319   0.000000   8.96041 102.48956   2.96041 102.48956   2.92642 103.63009   8.92642 103.63009
      20   5.90923 104.20083         20.50027   0.000000   8.92642 103.63009   2.92642 103.63009   2.89191 104.77156   8.89191 104.77156
      20   5.87445 105.34278         20.51736   0.000000   8.89191 104.77156   2.89191 104.77156   2.85686 105.91399   8.85686 105.91399
      20   5.83913 106.48568         20.53446   0.000000   8.85686 105.91399   2.85686 105.91399   2.82126 107.05737   8.82126 107.05737
      20   5.80325 107.62954         20.55158   0.000000   8.82126 107.05737   2.82126 107.05737   2.78511 108.20170   8.78511 108.20170
      20   5.76681 108.77435         20.56872   0.000000   8.78511 108.20170   2.78511 108.20170   2.74838 109.34699   8.74838 109.34699
      20   5.72979 109.92011         20.58587   0.000000   8.74838 109.34699   2.74838 109.34699   2.71107 110.49323   8.71107 110.49323
      20   5.69219 111.06683         20.60303   0.000000   8.71107 110.49323   2.71107 110.49323   2.67317 111.64043   8.67317 111.64043
      20   5.65400 112.21451         20.62020   0.000000   8.67317 111.64043   2.67317 111.64043   2.63468 112.78858   8.63468 112.78858
      20   5.61520 113.36314         20.63739   0.000000   8.63468 112.78858   2.63468 112.78858   2.59557 113.93770   8.59557 113.93770
      20   5.57578 114.51273         20.65460   0.000000   8.59557 113.93770   2.59557 113.93770   2.55584 115.08776   8.55584 115.08776
      20   5.53574 115.66328         20.67182   0.000000   8.55584 115.08776   2.55584 115.08776   2.51548 116.23879   8.51548 116.23879
      20   5.49506 116.81479         20.68905   0.000000   8.51548 116.23879   2.51548 116.23879   2.47448 117.39078   8.47448 117.39078
      20   5.45373 117.96725         20.70630   0.000000   8.47448 117.39078   2.47448 117.39078   2.43282 118.54373   8.43282 118.54373
      20   5.41174 119.12068         20.72356   0.000000   8.43282 118.54373   2.43282 118.54373   2.39050 119.69764   8.39050 119.69764
      20   5.36909 120.27507         20.74084   0.000000   8.39050 119.69764   2.39050 119.69764   2.34751 120.85251   8.34751 120.85251
      20   5.32575 121.43043         20.75813   0.000000   8.34751 120.85251   2.34751 120.85251   2.30383 122.00834   8.30383 122.00834
      20   5.28173 122.58674         20.77544   0.000000   8.30383 122.00834   2.30383 122.00834   2.25946 123.16514   8.25946 123.16514
      20   5.23700 123.74402         20.79276   0.000000   8.25946 123.16514   2.25946 123.16514   2.21438 124.32290   8.21438 124.32290
      20   5.19157 124.90227         20.81009   0.000000   8.21438 124.32290   2.21438 124.32290   2.16858 125.48163   8.16858 125.48163
      20   5.14541 126.06148         20.82744   0.000000   8.16858 125.48163   2.16858 125.48163   2.12206 126.64132   8.12206 126.64132
      20   5.09851 127.22165         20.84480   0.000000   8.12206 126.64132   2.12206 126.64132   2.07479 127.80198   8.07479 127.80198
      19  14.95059   1.33309         19.94419   0.000000  17.95048   0.80522  11.95048   0.80522  11.95060   1.86097  17.95060   1.86097
      19  14.95052   2.38928         19.96082   0.000000  17.95060   1.86097  11.95060   1.86097  11.95034   2.91760  17.95034   2.91760
      19  14.95007   3.44636         19.97746   0.000000  17.95034   2.91760  11.95034   2.91760  11.94970   3.97511  17.94970   3.97511
      19  14.94923   4.50431         19.99412   0.000000  17.94970   3.97511  11.94970   3.97511  11.94868   5.03351  17.94868   5.03351
      19  14.94802   5.56315         20.01078   0.000000  17.94868   5.03351  11.94868   5.03351  11.94727   6.09278  17.94727   6.09278
      19  14.94643   6.62286         20.02747   0.000000  17.94727   6.09278  11.94727   6.09278  11.94549   7.15294  17.94549   7.15294
      19  14.94446   7.68347         20.04416   0.000000  17.94549   7.15294  11.94549   7.15294  11.94334   8.21399  17.94334   8.21399
      19  14.94212   8.74495         20.06087   0.000000  17.94334   8.21399  11.94334   8.21399  11.94081   9.27592  17.94081   9.27592
      19  14.93941   9.80732         20.07760   0.000000  17.94081   9.27592  11.94081   9.27592  11.93792  10.33873  17.93792  10.33873
      19  14.93633  10.87058         20.09434   0.000000  17.93792  10.33873  11.93792  10.33873  11.93466  11.40243  17.93466  11.40243
      19  14.93289  11.93472         20.11109   0.000000  17.93466  11.40243  11.93466  11.40243  11.93103  12.46702  17.93103  12.46702
      19  14.92908  12.99975         20.12786   0.000000  17.93103  12.46702  11.93103  12.46702  11.92704  13.53249  17.92704  13.53249
      19  14.92491  14.06567         20.14464   0.000000  17.92704  13.53249  11.92704  13.53249  11.92269  14.59885  17.92269  14.59885
      19  14.92039  15.13248         20.16143   0.000000  17.92269  14.59885  11.92269  14.59885  11.91799  15.66610  17.91799  15.66610
      19  14.91550  16.20017         20.17824   0.000000  17.91799  15.66610  11.91799  15.66610  11.91293  16.73425  17.91293  16.73425
      19  14.91026  17.26876         20.19506   0.000000  17.91293  16.73425  11.91293  16.73425  11.90751  17.80328  17.90751  17.80328
      19  14.90468  18.33824         20.21190   0.000000  17.90751  17.80328  11.90751  17.80328  11.90175  18.87320  17.90175  18.87320
      19  14.89874  19.40861         20.22875   0.000000  17.90175  18.87320  11.90175  18.87320  11.89564  19.94401  17.89564  19.94401
      19  14.89245  20.47987         20.24561   0.000000  17.89564  19.94401  11.89564  19.94401  11.88918  21.01572  17.88918  21.01572
      19  14.88583  21.55202         20.26249   0.000000  17.88918  21.01572  11.88918  21.01572  11.88239  22.08832  17.88239  22.08832
      19  14.87886  22.62507         20.27938   0.000000  17.88239  22.08832  11.88239  22.08832  11.87525  23.16182  17.87525  23.16182
      19  14.87155  23.69901         20.29629   0.000000  17.87525  23.16182  11.87525  23.16182  11.86777  24.23621  17.86777  24.23621
      19  14.86391  24.77385         20.31321   0.000000  17.86777  24.23621  11.86777  24.23621  11.85996  25.31149  17.85996  25.31149
      19  14.85593  25.84959         20.33014   0.000000  17.85996  25.31149  11.85996  25.31149  11.85182  26.38768  17.85182  26.38768
      19  14.84762  26.92622         20.34709   0.000000  17.85182  26.38768  11.85182  26.38768  11.84334  27.46476  17.84334  27.46476
      19  14.83898  28.00375         20.36406   0.000000  17.84334  27.46476  11.84334  27.46476  11.83454  28.54273  17.83454  28.54273
      19  14.83002  29.08217         20.38103   0.000000  17.83454  28.54273  11.83454  28.54273  11.82542  29.62161  17.82542  29.62161
      19  14.82074  30.16150         20.39802   0.000000  17.82542  29.62161  11.82542  29.62161  11.81597  30.70139  17.81597  30.70139
