\comment Wavsamp table for S13.0, 29 Sep 2005, D. Shupe
\processing time 11:45:33 PST 09/29/2005
\wavsamp software version 5.1 (Wed Apr 20 08:45:04 PDT 2005)
\character channelID = 1
| order |x_center |y_center |   wavelength   |  angle   |   x0    |   y0    |   x1    |   y1    |   x2    |   y2    |   x3    |   y3    |
| int   |  real   |  real   |    real        |   real   |  real   |  real   |  real   |  real   |  real   |  real   |  real   |  real   |
      20 120.45426 127.99905          9.86350   6.481150 123.23890 128.78928 117.64985 128.15435 117.66961 127.20881 123.25866 127.84374
      20 120.47402 127.05314          9.87109   6.481150 123.25866 127.84374 117.66961 127.20881 117.68938 126.26255 123.27843 126.89748
      20 120.49380 126.10651          9.87869   6.481150 123.27843 126.89748 117.68938 126.26255 117.70917 125.31555 123.29822 125.95048
      20 120.51360 125.15915          9.88629   6.481150 123.29822 125.95048 117.70917 125.31555 117.72898 124.36783 123.31803 125.00276
      20 120.53341 124.21107          9.89390   6.481150 123.31803 125.00276 117.72898 124.36783 117.74880 123.41937 123.33785 124.05430
      20 120.55324 123.26225          9.90151   6.481150 123.33785 124.05430 117.74880 123.41937 117.76863 122.47019 123.35768 123.10512
      20 120.57308 122.31270          9.90913   6.481150 123.35768 123.10512 117.76863 122.47019 117.78848 121.52028 123.37753 122.15521
      20 120.59294 121.36242          9.91675   6.481150 123.37753 122.15521 117.78848 121.52028 117.80835 120.56963 123.39740 121.20456
      20 120.61281 120.41141          9.92439   6.481150 123.39740 121.20456 117.80835 120.56963 117.82823 119.61826 123.41728 120.25319
      20 120.63270 119.45967          9.93202   6.481150 123.41728 120.25319 117.82823 119.61826 117.84812 118.66615 123.43717 119.30108
      20 120.65260 118.50719          9.93967   6.481150 123.43717 119.30108 117.84812 118.66615 117.86803 117.71331 123.45708 118.34824
      20 120.67252 117.55399          9.94731   6.481150 123.45708 118.34824 117.86803 117.71331 117.88796 116.75974 123.47701 117.39467
      20 120.69245 116.60005          9.95497   6.481150 123.47701 117.39467 117.88796 116.75974 117.90790 115.80543 123.49695 116.44036
      20 120.71240 115.64537          9.96263   6.481150 123.49695 116.44036 117.90790 115.80543 117.92786 114.85039 123.51691 115.48532
      20 120.73237 114.68996          9.97030   6.481150 123.51691 115.48532 117.92786 114.85039 117.94783 113.89461 123.53688 114.52954
      20 120.75235 113.73382          9.97797   6.481150 123.53688 114.52954 117.94783 113.89461 117.96782 112.93810 123.55687 113.57303
      20 120.77234 112.77694          9.98565   6.481150 123.55687 113.57303 117.96782 112.93810 117.98782 111.98085 123.57687 112.61578
      20 120.79236 111.81932          9.99333   6.481150 123.57687 112.61578 117.98782 111.98085 118.00784 111.02286 123.59689 111.65779
      20 120.81238 110.86097         10.00102   6.481150 123.59689 111.65779 118.00784 111.02286 118.02787 110.06414 123.61692 110.69907
      20 120.83242 109.90188         10.00872   6.481150 123.61692 110.69907 118.02787 110.06414 118.04792 109.10468 123.63697 109.73961
      20 120.85248 108.94205         10.01642   6.481150 123.63697 109.73961 118.04792 109.10468 118.06799 108.14448 123.65704 108.77941
      20 120.87255 107.98148         10.02413   6.481150 123.65704 108.77941 118.06799 108.14448 118.08807 107.18355 123.67712 107.81848
      20 120.89264 107.02017         10.03184   6.481150 123.67712 107.81848 118.08807 107.18355 118.10816 106.22187 123.69721 106.85680
      20 120.91274 106.05813         10.03956   6.481150 123.69721 106.85680 118.10816 106.22187 118.12827 105.25945 123.71732 105.89438
      20 120.93286 105.09534         10.04729   6.481150 123.71732 105.89438 118.12827 105.25945 118.14840 104.29630 123.73745 104.93122
      20 120.95300 104.13181         10.05502   6.481150 123.73745 104.93122 118.14840 104.29630 118.16854 103.33240 123.75759 103.96733
      20 120.97315 103.16754         10.06276   6.481150 123.75759 103.96733 118.16854 103.33240 118.18870 102.36776 123.77775 103.00269
      20 120.99331 102.20253         10.07050   6.481150 123.77775 103.00269 118.18870 102.36776 118.20887 101.40237 123.79792 102.03730
      20 121.01349 101.23678         10.07825   6.481150 123.79792 102.03730 118.20887 101.40237 118.22906 100.43625 123.81811 101.07118
      20 121.03369 100.27028         10.08600   6.481150 123.81811 101.07118 118.22906 100.43625 118.24927  99.46938 123.83832 100.10431
      20 121.05390  99.30304         10.09377   6.481150 123.83832 100.10431 118.24927  99.46938 118.26949  98.50177 123.85854  99.13670
      20 121.07413  98.33505         10.10153   6.481150 123.85854  99.13670 118.26949  98.50177 118.28972  97.53341 123.87877  98.16834
      20 121.09437  97.36632         10.10931   6.481150 123.87877  98.16834 118.28972  97.53341 118.30997  96.56431 123.89902  97.19924
      20 121.11463  96.39685         10.11709   6.481150 123.89902  97.19924 118.30997  96.56431 118.33024  95.59446 123.91929  96.22939
      20 121.13490  95.42662         10.12487   6.481150 123.91929  96.22939 118.33024  95.59446 118.35052  94.62386 123.93957  95.25879
      20 121.15519  94.45566         10.13266   6.481150 123.93957  95.25879 118.35052  94.62386 118.37082  93.65252 123.95987  94.28745
      20 121.17550  93.48394         10.14046   6.481150 123.95987  94.28745 118.37082  93.65252 118.39113  92.68043 123.98018  93.31536
      20 121.19582  92.51148         10.14826   6.481150 123.98018  93.31536 118.39113  92.68043 118.41146  91.70759 124.00051  92.34252
      20 121.21616  91.53827         10.15607   6.481150 124.00051  92.34252 118.41146  91.70759 118.43180  90.73401 124.02086  91.36894
      20 121.23651  90.56431         10.16389   6.481150 124.02086  91.36894 118.43180  90.73401 118.45216  89.75967 124.04122  90.39460
      20 121.25688  89.58960         10.17171   6.481150 124.04122  90.39460 118.45216  89.75967 118.47254  88.78459 124.06159  89.41952
      20 121.27726  88.61414         10.17954   6.481150 124.06159  89.41952 118.47254  88.78459 118.49293  87.80875 124.08198  88.44368
      20 121.29766  87.63793         10.18737   6.481150 124.08198  88.44368 118.49293  87.80875 118.51334  86.83217 124.10239  87.46710
      20 121.31808  86.66096         10.19521   6.481150 124.10239  87.46710 118.51334  86.83217 118.53376  85.85483 124.12281  86.48976
      20 121.33851  85.68325         10.20306   6.481150 124.12281  86.48976 118.53376  85.85483 118.55420  84.87674 124.14325  85.51167
      20 121.35895  84.70478         10.21091   6.481150 124.14325  85.51167 118.55420  84.87674 118.57465  83.89790 124.16371  84.53283
      20 121.37942  83.72556         10.21876   6.481150 124.16371  84.53283 118.57465  83.89790 118.59512  82.91830 124.18418  83.55323
      20 121.39989  82.74559         10.22663   6.481150 124.18418  83.55323 118.59512  82.91830 118.61561  81.93795 124.20466  82.57288
      20 121.42039  81.76487         10.23450   6.481150 124.20466  82.57288 118.61561  81.93795 118.63611  80.95685 124.22516  81.59178
      20 121.44090  80.78338         10.24237   6.481150 124.22516  81.59178 118.63611  80.95685 118.65663  79.97499 124.24568  80.60992
      20 121.46142  79.80115         10.25026   6.481150 124.24568  80.60992 118.65663  79.97499 118.67716  78.99238 124.26621  79.62730
      20 121.48196  78.81815         10.25814   6.481150 124.26621  79.62730 118.67716  78.99238 118.69771  78.00900 124.28676  78.64393
      20 121.50252  77.83441         10.26604   6.481150 124.28676  78.64393 118.69771  78.00900 118.71828  77.02488 124.30733  77.65981
      20 121.52309  76.84990         10.27394   6.481150 124.30733  77.65981 118.71828  77.02488 118.73886  76.03999 124.32791  76.67492
      20 121.54368  75.86464         10.28184   6.481150 124.32791  76.67492 118.73886  76.03999 118.75945  75.05435 124.34850  75.68928
      20 121.56429  74.87861         10.28976   6.481150 124.34850  75.68928 118.75945  75.05435 118.78007  74.06795 124.36912  74.70288
      20 121.58491  73.89183         10.29767   6.481150 124.36912  74.70288 118.78007  74.06795 118.80069  73.08079 124.38975  73.71572
      20 121.60554  72.90429         10.30560   6.481150 124.38975  73.71572 118.80069  73.08079 118.82134  72.09287 124.41039  72.72780
      20 121.62619  71.91599         10.31353   6.481150 124.41039  72.72780 118.82134  72.09287 118.84200  71.10419 124.43105  71.73912
      20 121.64686  70.92693         10.32146   6.481150 124.43105  71.73912 118.84200  71.10419 118.86267  70.11475 124.45172  70.74968
      20 121.66755  69.93711         10.32941   6.481150 124.45172  70.74968 118.86267  70.11475 118.88337  69.12455 124.47242  69.75948
      20 121.68824  68.94653         10.33736   6.481150 124.47242  69.75948 118.88337  69.12455 118.90407  68.13358 124.49312  68.76851
      20 121.70896  67.95518         10.34531   6.481150 124.49312  68.76851 118.90407  68.13358 118.92480  67.14186 124.51385  67.77679
      20 121.72969  66.96308         10.35327   6.481150 124.51385  67.77679 118.92480  67.14186 118.94554  66.14937 124.53459  66.78430
      20 121.75044  65.97020         10.36124   6.481150 124.53459  66.78430 118.94554  66.14937 118.96629  65.15611 124.55534  65.79104
      20 121.77120  64.97657         10.36921   6.481150 124.55534  65.79104 118.96629  65.15611 118.98706  64.16209 124.57611  64.79702
      20 121.79198  63.98217         10.37719   6.481150 124.57611  64.79702 118.98706  64.16209 119.00785  63.16731 124.59690  63.80224
      20 121.81278  62.98700         10.38518   6.481150 124.59690  63.80224 119.00785  63.16731 119.02865  62.17176 124.61771  62.80669
      20 121.83359  61.99107         10.39317   6.481150 124.61771  62.80669 119.02865  62.17176 119.04947  61.17545 124.63852  61.81038
      20 121.85442  60.99437         10.40117   6.481150 124.63852  61.81038 119.04947  61.17545 119.07031  60.17837 124.65936  60.81330
      20 121.87526  59.99691         10.40917   6.481150 124.65936  60.81330 119.07031  60.17837 119.09116  59.18052 124.68021  59.81545
      20 121.89612  58.99868         10.41718   6.481150 124.68021  59.81545 119.09116  59.18052 119.11203  58.18190 124.70108  58.81683
      20 121.91700  57.99968         10.42520   6.481150 124.70108  58.81683 119.11203  58.18190 119.13291  57.18252 124.72196  57.81745
      20 121.93789  56.99991         10.43322   6.481150 124.72196  57.81745 119.13291  57.18252 119.15381  56.18236 124.74286  56.81729
      20 121.95879  55.99937         10.44125   6.481150 124.74286  56.81729 119.15381  56.18236 119.17473  55.18144 124.76378  55.81637
      20 121.97972  54.99806         10.44928   6.481150 124.76378  55.81637 119.17473  55.18144 119.19566  54.17975 124.78471  54.81468
      20 122.00066  53.99598         10.45732   6.481150 124.78471  54.81468 119.19566  54.17975 119.21661  53.17728 124.80566  53.81221
      20 122.02161  52.99313         10.46537   6.481150 124.80566  53.81221 119.21661  53.17728 119.23757  52.17405 124.82662  52.80898
      20 122.04259  51.98951         10.47342   6.481150 124.82662  52.80898 119.23757  52.17405 119.25855  51.17004 124.84760  51.80497
      20 122.06358  50.98511         10.48148   6.481150 124.84760  51.80497 119.25855  51.17004 119.27955  50.16526 124.86860  50.80019
      20 122.08458  49.97995         10.48955   6.481150 124.86860  50.80019 119.27955  50.16526 119.30056  49.15970 124.88961  49.79463
      20 122.10560  48.97401         10.49762   6.481150 124.88961  49.79463 119.30056  49.15970 119.32159  48.15338 124.91064  48.78831
      20 122.12664  47.96729         10.50570   6.481150 124.91064  48.78831 119.32159  48.15338 119.34263  47.14627 124.93168  47.78120
      20 122.14769  46.95980         10.51378   6.481150 124.93168  47.78120 119.34263  47.14627 119.36370  46.13840 124.95275  46.77333
      20 122.16876  45.95154         10.52188   6.481150 124.95275  46.77333 119.36370  46.13840 119.38477  45.12975 124.97382  45.76467
      20 122.18984  44.94250         10.52997   6.481150 124.97382  45.76467 119.38477  45.12975 119.40587  44.12032 124.99492  44.75525
      20 122.21095  43.93268         10.53808   6.481150 124.99492  44.75525 119.40587  44.12032 119.42698  43.11011 125.01603  43.74504
      20 122.23206  42.92208         10.54618   6.481150 125.01603  43.74504 119.42698  43.11011 119.44810  42.09913 125.03715  42.73406
      20 122.25320  41.91071         10.55430   6.481150 125.03715  42.73406 119.44810  42.09913 119.46924  41.08737 125.05829  41.72230
      20 122.27435  40.89856         10.56242   6.481150 125.05829  41.72230 119.46924  41.08737 119.49040  40.07483 125.07945  40.70976
      20 122.29552  39.88563         10.57055   6.481150 125.07945  40.70976 119.49040  40.07483 119.51158  39.06151 125.10063  39.69644
      20 122.31670  38.87192         10.57868   6.481150 125.10063  39.69644 119.51158  39.06151 119.53277  38.04741 125.12182  38.68234
      20 122.33790  37.85744         10.58683   6.481150 125.12182  38.68234 119.53277  38.04741 119.55398  37.03253 125.14303  37.66746
      20 122.35911  36.84217         10.59497   6.481150 125.14303  37.66746 119.55398  37.03253 119.57520  36.01687 125.16425  36.65180
      20 122.38034  35.82612         10.60313   6.481150 125.16425  36.65180 119.57520  36.01687 119.59644  35.00043 125.18549  35.63536
      20 122.40159  34.80928         10.61128   6.481150 125.18549  35.63536 119.59644  35.00043 119.61770  33.98321 125.20675  34.61814
      20 122.42286  33.79167         10.61945   6.481150 125.20675  34.61814 119.61770  33.98321 119.63897  32.96520 125.22802  33.60013
      20 122.44414  32.77327         10.62762   6.481150 125.22802  33.60013 119.63897  32.96520 119.66026  31.94641 125.24931  32.58134
      20 122.46544  31.75409         10.63580   6.481150 125.24931  32.58134 119.66026  31.94641 119.68156  30.92684 125.27061  31.56177
      20 122.48675  30.73412         10.64398   6.481150 125.27061  31.56177 119.68156  30.92684 119.70288  29.90648 125.29194  30.54141
      20 122.50808  29.71337         10.65218   6.481150 125.29194  30.54141 119.70288  29.90648 119.72422  28.88534 125.31327  29.52026
      20 122.52943  28.69184         10.66037   6.481150 125.31327  29.52026 119.72422  28.88534 119.74558  27.86341 125.33463  28.49834
      20 122.55079  27.66951         10.66858   6.481150 125.33463  28.49834 119.74558  27.86341 119.76695  26.84069 125.35600  27.47562
      20 122.57217  26.64640         10.67679   6.481150 125.35600  27.47562 119.76695  26.84069 119.78834  25.81719 125.37739  26.45212
      20 122.59356  25.62251         10.68500   6.481150 125.37739  26.45212 119.78834  25.81719 119.80974  24.79290 125.39879  25.42783
      20 122.61498  24.59782         10.69322   6.481150 125.39879  25.42783 119.80974  24.79290 119.83116  23.76782 125.42021  24.40275
      20 122.63641  23.57235         10.70145   6.481150 125.42021  24.40275 119.83116  23.76782 119.85260  22.74195 125.44165  23.37688
      19 113.49966 127.78601         10.37719   6.669800 116.28591 128.58266 110.69898 127.92934 110.71341 126.98936 116.30034 127.64269
      19 113.51409 126.84568         10.38518   6.669800 116.30034 127.64269 110.71341 126.98936 110.72784 126.04866 116.31477 126.70199
      19 113.52853 125.90462         10.39317   6.669800 116.31477 126.70199 110.72784 126.04866 110.74229 125.10724 116.32922 125.76057
      19 113.54299 124.96283         10.40117   6.669800 116.32922 125.76057 110.74229 125.10724 110.75675 124.16510 116.34368 124.81842
      19 113.55745 124.02032         10.40917   6.669800 116.34368 124.81842 110.75675 124.16510 110.77122 123.22223 116.35815 123.87555
      19 113.57193 123.07709         10.41718   6.669800 116.35815 123.87555 110.77122 123.22223 110.78570 122.27863 116.37263 122.93196
      19 113.58642 122.13313         10.42520   6.669800 116.37263 122.93196 110.78570 122.27863 110.80020 121.33431 116.38713 121.98763
      19 113.60091 121.18845         10.43322   6.669800 116.38713 121.98763 110.80020 121.33431 110.81470 120.38926 116.40163 121.04259
      19 113.61542 120.24303         10.44125   6.669800 116.40163 121.04259 110.81470 120.38926 110.82922 119.44348 116.41615 120.09681
      19 113.62994 119.29689         10.44928   6.669800 116.41615 120.09681 110.82922 119.44348 110.84374 118.49698 116.43067 119.15030
      19 113.64448 118.35002         10.45732   6.669800 116.43067 119.15030 110.84374 118.49698 110.85828 117.54974 116.44521 118.20307
      19 113.65902 117.40243         10.46537   6.669800 116.44521 118.20307 110.85828 117.54974 110.87283 116.60178 116.45976 117.25511
      19 113.67357 116.45410         10.47342   6.669800 116.45976 117.25511 110.87283 116.60178 110.88739 115.65309 116.47432 116.30642
      19 113.68814 115.50505         10.48148   6.669800 116.47432 116.30642 110.88739 115.65309 110.90196 114.70367 116.48889 115.35700
      19 113.70272 114.55526         10.48955   6.669800 116.48889 115.35700 110.90196 114.70367 110.91654 113.75352 116.50347 114.40685
      19 113.71730 113.60474         10.49762   6.669800 116.50347 114.40685 110.91654 113.75352 110.93114 112.80264 116.51807 113.45596
      19 113.73190 112.65349         10.50570   6.669800 116.51807 113.45596 110.93114 112.80264 110.94574 111.85102 116.53267 112.50435
      19 113.74651 111.70151         10.51378   6.669800 116.53267 112.50435 110.94574 111.85102 110.96036 110.89867 116.54729 111.55200
      19 113.76113 110.74880         10.52188   6.669800 116.54729 111.55200 110.96036 110.89867 110.97498 109.94560 116.56191 110.59892
      19 113.77577 109.79535         10.52997   6.669800 116.56191 110.59892 110.97498 109.94560 110.98962 108.99178 116.57655 109.64511
      19 113.79041 108.84117         10.53808   6.669800 116.57655 109.64511 110.98962 108.99178 111.00427 108.03723 116.59120 108.69056
      19 113.80507 107.88626         10.54618   6.669800 116.59120 108.69056 111.00427 108.03723 111.01893 107.08195 116.60586 107.73528
      19 113.81973 106.93061         10.55430   6.669800 116.60586 107.73528 111.01893 107.08195 111.03360 106.12594 116.62053 106.77926
      19 113.83441 105.97422         10.56242   6.669800 116.62053 106.77926 111.03360 106.12594 111.04829 105.16918 116.63522 105.82251
      19 113.84910 105.01710         10.57055   6.669800 116.63522 105.82251 111.04829 105.16918 111.06298 104.21170 116.64991 104.86502
      19 113.86380 104.05925         10.57868   6.669800 116.64991 104.86502 111.06298 104.21170 111.07769 103.25347 116.66462 103.90680
      19 113.87851 103.10065         10.58683   6.669800 116.66462 103.90680 111.07769 103.25347 111.09241 102.29451 116.67934 102.94784
      19 113.89324 102.14132         10.59497   6.669800 116.67934 102.94784 111.09241 102.29451 111.10714 101.33481 116.69407 101.98813
      19 113.90797 101.18125         10.60313   6.669800 116.69407 101.98813 111.10714 101.33481 111.12188 100.37437 116.70881 101.02769
      19 113.92272 100.22044         10.61128   6.669800 116.70881 101.02769 111.12188 100.37437 111.13663  99.41319 116.72356 100.06652
      19 113.93747  99.25889         10.61945   6.669800 116.72356 100.06652 111.13663  99.41319 111.15139  98.45127 116.73832  99.10460
      19 113.95224  98.29661         10.62762   6.669800 116.73832  99.10460 111.15139  98.45127 111.16616  97.48861 116.75309  98.14194
      19 113.96702  97.33358         10.63580   6.669800 116.75309  98.14194 111.16616  97.48861 111.18095  96.52521 116.76788  97.17854
      19 113.98181  96.36981         10.64398   6.669800 116.76788  97.17854 111.18095  96.52521 111.19575  95.56107 116.78268  96.21440
      19 113.99662  95.40530         10.65218   6.669800 116.78268  96.21440 111.19575  95.56107 111.21055  94.59619 116.79748  95.24952
