\wavsamp version 5.1 (Wed Apr 20 08:45:04 PDT 2005)
\processing time 13:38:55 PST 04/26/2005
\character channelID = 1
| order |x_center |y_center |   wavelength   |  angle   |   x0    |   y0    |   x1    |   y1    |   x2    |   y2    |   x3    |   y3    |
| int   |  real   |  real   |    real        |   real   |  real   |  real   |  real   |  real   |  real   |  real   |  real   |  real   |
      20 120.64713 128.00022          9.89273   6.481150 123.43009 128.81046 117.84104 128.17553 117.86416 127.18998 123.45321 127.82491
      20 120.67025 127.01429          9.90034   6.481150 123.45321 127.82491 117.86416 127.18998 117.88729 126.20368 123.47634 126.83860
      20 120.69339 126.02761          9.90796   6.481150 123.47634 126.83860 117.88729 126.20368 117.91044 125.21661 123.49949 125.85154
      20 120.71655 125.04016          9.91559   6.481150 123.49949 125.85154 117.91044 125.21661 117.93361 124.22878 123.52266 124.86371
      20 120.73973 124.05195          9.92322   6.481150 123.52266 124.86371 117.93361 124.22878 117.95680 123.24019 123.54585 123.87512
      20 120.76293 123.06298          9.93085   6.481150 123.54585 123.87512 117.95680 123.24019 117.98000 122.25085 123.56905 122.88578
      20 120.78614 122.07326          9.93849   6.481150 123.56905 122.88578 117.98000 122.25085 118.00322 121.26074 123.59228 121.89567
      20 120.80937 121.08277          9.94614   6.481150 123.59228 121.89567 118.00322 121.26074 118.02646 120.26987 123.61552 120.90480
      20 120.83262 120.09151          9.95380   6.481150 123.61552 120.90480 118.02646 120.26987 118.04972 119.27823 123.63877 119.91316
      20 120.85589 119.09950          9.96146   6.481150 123.63877 119.91316 118.04972 119.27823 118.07300 118.28584 123.66205 118.92077
      20 120.87917 118.10672          9.96912   6.481150 123.66205 118.92077 118.07300 118.28584 118.09629 117.29268 123.68534 117.92760
      20 120.90247 117.11318          9.97679   6.481150 123.68534 117.92760 118.09629 117.29268 118.11960 116.29875 123.70866 116.93368
      20 120.92579 116.11887          9.98447   6.481150 123.70866 116.93368 118.11960 116.29875 118.14293 115.30406 123.73198 115.93899
      20 120.94913 115.12380          9.99215   6.481150 123.73198 115.93899 118.14293 115.30406 118.16628 114.30861 123.75533 114.94354
      20 120.97249 114.12796          9.99984   6.481150 123.75533 114.94354 118.16628 114.30861 118.18965 113.31239 123.77870 113.94732
      20 120.99586 113.13136         10.00754   6.481150 123.77870 113.94732 118.18965 113.31239 118.21303 112.31540 123.80208 112.95033
      20 121.01926 112.13399         10.01524   6.481150 123.80208 112.95033 118.21303 112.31540 118.23643 111.31764 123.82548 111.95257
      20 121.04267 111.13585         10.02295   6.481150 123.82548 111.95257 118.23643 111.31764 118.25985 110.31912 123.84890 110.95405
      20 121.06610 110.13694         10.03066   6.481150 123.84890 110.95405 118.25985 110.31912 118.28329 109.31983 123.87234 109.95476
      20 121.08954 109.13727         10.03838   6.481150 123.87234 109.95476 118.28329 109.31983 118.30675 108.31977 123.89580 108.95470
      20 121.11301 108.13682         10.04610   6.481150 123.89580 108.95470 118.30675 108.31977 118.33022 107.31894 123.91927 107.95387
      20 121.13649 107.13561         10.05383   6.481150 123.91927 107.95387 118.33022 107.31894 118.35371 106.31734 123.94276 106.95227
      20 121.15999 106.13362         10.06157   6.481150 123.94276 106.95227 118.35371 106.31734 118.37722 105.31497 123.96627 105.94990
      20 121.18351 105.13086         10.06931   6.481150 123.96627 105.94990 118.37722 105.31497 118.40075 104.31183 123.98980 104.94676
      20 121.20705 104.12734         10.07706   6.481150 123.98980 104.94676 118.40075 104.31183 118.42430 103.30792 124.01335 103.94285
      20 121.23060 103.12304         10.08482   6.481150 124.01335 103.94285 118.42430 103.30792 118.44786 102.30323 124.03691 102.93816
      20 121.25418 102.11796         10.09258   6.481150 124.03691 102.93816 118.44786 102.30323 118.47144 101.29777 124.06049 101.93270
      20 121.27777 101.11212         10.10034   6.481150 124.06049 101.93270 118.47144 101.29777 118.49504 100.29154 124.08409 100.92647
      20 121.30138 100.10550         10.10812   6.481150 124.08409 100.92647 118.49504 100.29154 118.51866  99.28453 124.10771  99.91946
      20 121.32501  99.09810         10.11589   6.481150 124.10771  99.91946 118.51866  99.28453 118.54230  98.27675 124.13135  98.91168
      20 121.34865  98.08993         10.12368   6.481150 124.13135  98.91168 118.54230  98.27675 118.56595  97.26819 124.15500  97.90312
      20 121.37232  97.08099         10.13147   6.481150 124.15500  97.90312 118.56595  97.26819 118.58963  96.25886 124.17868  96.89378
      20 121.39600  96.07126         10.13927   6.481150 124.17868  96.89378 118.58963  96.25886 118.61332  95.24874 124.20237  95.88367
      20 121.41970  95.06077         10.14707   6.481150 124.20237  95.88367 118.61332  95.24874 118.63703  94.23786 124.22608  94.87279
      20 121.44342  94.04949         10.15488   6.481150 124.22608  94.87279 118.63703  94.23786 118.66076  93.22619 124.24981  93.86112
      20 121.46715  93.03743         10.16269   6.481150 124.24981  93.86112 118.66076  93.22619 118.68450  92.21375 124.27355  92.84868
      20 121.49091  92.02460         10.17051   6.481150 124.27355  92.84868 118.68450  92.21375 118.70827  91.20052 124.29732  91.83545
      20 121.51468  91.01099         10.17834   6.481150 124.29732  91.83545 118.70827  91.20052 118.73205  90.18652 124.32110  90.82145
      20 121.53847  89.99659         10.18617   6.481150 124.32110  90.82145 118.73205  90.18652 118.75585  89.17174 124.34490  89.80667
      20 121.56229  88.98142         10.19401   6.481150 124.34490  89.80667 118.75585  89.17174 118.77967  88.15617 124.36872  88.79110
      20 121.58611  87.96546         10.20185   6.481150 124.36872  88.79110 118.77967  88.15617 118.80351  87.13983 124.39256  87.77476
      20 121.60996  86.94873         10.20970   6.481150 124.39256  87.77476 118.80351  87.13983 118.82736  86.12270 124.41641  86.75763
      20 121.63383  85.93121         10.21756   6.481150 124.41641  86.75763 118.82736  86.12270 118.85124  85.10479 124.44029  85.73972
      20 121.65771  84.91291         10.22542   6.481150 124.44029  85.73972 118.85124  85.10479 118.87513  84.08609 124.46418  84.72102
      20 121.68161  83.89382         10.23329   6.481150 124.46418  84.72102 118.87513  84.08609 118.89904  83.06662 124.48809  83.70155
      20 121.70553  82.87395         10.24117   6.481150 124.48809  83.70155 118.89904  83.06662 118.92297  82.04635 124.51202  82.68128
      20 121.72947  81.85329         10.24905   6.481150 124.51202  82.68128 118.92297  82.04635 118.94692  81.02531 124.53597  81.66024
      20 121.75343  80.83185         10.25693   6.481150 124.53597  81.66024 118.94692  81.02531 118.97089  80.00347 124.55994  80.63840
      20 121.77740  79.80963         10.26483   6.481150 124.55994  80.63840 118.97089  80.00347 118.99487  78.98085 124.58392  79.61578
      20 121.80140  78.78661         10.27273   6.481150 124.58392  79.61578 118.99487  78.98085 119.01887  77.95745 124.60792  78.59238
      20 121.82541  77.76281         10.28063   6.481150 124.60792  78.59238 119.01887  77.95745 119.04290  76.93325 124.63195  77.56818
      20 121.84944  76.73823         10.28854   6.481150 124.63195  77.56818 119.04290  76.93325 119.06694  75.90827 124.65599  76.54320
      20 121.87349  75.71285         10.29646   6.481150 124.65599  76.54320 119.06694  75.90827 119.09099  74.88250 124.68005  75.51743
      20 121.89756  74.68668         10.30438   6.481150 124.68005  75.51743 119.09099  74.88250 119.11507  73.85594 124.70412  74.49087
      20 121.92164  73.65973         10.31231   6.481150 124.70412  74.49087 119.11507  73.85594 119.13917  72.82859 124.72822  73.46352
      20 121.94575  72.63198         10.32025   6.481150 124.72822  73.46352 119.13917  72.82859 119.16328  71.80045 124.75233  72.43538
      20 121.96987  71.60345         10.32819   6.481150 124.75233  72.43538 119.16328  71.80045 119.18741  70.77152 124.77647  71.40645
      20 121.99402  70.57412         10.33614   6.481150 124.77647  71.40645 119.18741  70.77152 119.21157  69.74179 124.80062  70.37672
      20 122.01818  69.54400         10.34409   6.481150 124.80062  70.37672 119.21157  69.74179 119.23574  68.71128 124.82479  69.34621
      20 122.04236  68.51309         10.35205   6.481150 124.82479  69.34621 119.23574  68.71128 119.25992  67.67997 124.84898  68.31490
      20 122.06655  67.48138         10.36002   6.481150 124.84898  68.31490 119.25992  67.67997 119.28413  66.64786 124.87318  67.28279
      20 122.09077  66.44888         10.36799   6.481150 124.87318  67.28279 119.28413  66.64786 119.30836  65.61497 124.89741  66.24990
      20 122.11501  65.41559         10.37597   6.481150 124.89741  66.24990 119.30836  65.61497 119.33260  64.58127 124.92165  65.21620
      20 122.13926  64.38150         10.38395   6.481150 124.92165  65.21620 119.33260  64.58127 119.35687  63.54679 124.94592  64.18172
      20 122.16353  63.34661         10.39194   6.481150 124.94592  64.18172 119.35687  63.54679 119.38115  62.51150 124.97020  63.14643
      20 122.18782  62.31093         10.39994   6.481150 124.97020  63.14643 119.38115  62.51150 119.40545  61.47542 124.99450  62.11035
      20 122.21213  61.27445         10.40794   6.481150 124.99450  62.11035 119.40545  61.47542 119.42977  60.43855 125.01882  61.07348
      20 122.23646  60.23717         10.41595   6.481150 125.01882  61.07348 119.42977  60.43855 119.45411  59.40087 125.04316  60.03580
      20 122.26081  59.19910         10.42397   6.481150 125.04316  60.03580 119.45411  59.40087 119.47846  58.36240 125.06751  58.99733
      20 122.28518  58.16023         10.43199   6.481150 125.06751  58.99733 119.47846  58.36240 119.50284  57.32312 125.09189  57.95805
      20 122.30956  57.12055         10.44002   6.481150 125.09189  57.95805 119.50284  57.32312 119.52723  56.28305 125.11628  56.91798
      20 122.33396  56.08008         10.44805   6.481150 125.11628  56.91798 119.52723  56.28305 119.55164  55.24218 125.14070  55.87711
      20 122.35839  55.03881         10.45609   6.481150 125.14070  55.87711 119.55164  55.24218 119.57608  54.20050 125.16513  54.83543
      20 122.38283  53.99673         10.46414   6.481150 125.16513  54.83543 119.57608  54.20050 119.60053  53.15803 125.18958  53.79296
      20 122.40729  52.95385         10.47219   6.481150 125.18958  53.79296 119.60053  53.15803 119.62500  52.11475 125.21405  52.74968
      20 122.43177  51.91017         10.48025   6.481150 125.21405  52.74968 119.62500  52.11475 119.64948  51.07067 125.23854  51.70560
      20 122.45626  50.86569         10.48831   6.481150 125.23854  51.70560 119.64948  51.07067 119.67399  50.02579 125.26304  50.66072
      20 122.48078  49.82041         10.49639   6.481150 125.26304  50.66072 119.67399  50.02579 119.69852  48.98010 125.28757  49.61503
      20 122.50532  48.77432         10.50446   6.481150 125.28757  49.61503 119.69852  48.98010 119.72306  47.93360 125.31211  48.56853
      20 122.52987  47.72742         10.51255   6.481150 125.31211  48.56853 119.72306  47.93360 119.74763  46.88631 125.33668  47.52124
      20 122.55444  46.67972         10.52064   6.481150 125.33668  47.52124 119.74763  46.88631 119.77221  45.83820 125.36126  46.47313
      20 122.57903  45.63121         10.52873   6.481150 125.36126  46.47313 119.77221  45.83820 119.79681  44.78929 125.38586  45.42422
      20 122.60365  44.58190         10.53683   6.481150 125.38586  45.42422 119.79681  44.78929 119.82143  43.73957 125.41048  44.37450
      20 122.62828  43.53178         10.54494   6.481150 125.41048  44.37450 119.82143  43.73957 119.84607  42.68905 125.43512  43.32398
      20 122.65292  42.48085         10.55306   6.481150 125.43512  43.32398 119.84607  42.68905 119.87073  41.63771 125.45978  42.27264
      20 122.67759  41.42911         10.56118   6.481150 125.45978  42.27264 119.87073  41.63771 119.89541  40.58557 125.48446  41.22050
      20 122.70228  40.37656         10.56930   6.481150 125.48446  41.22050 119.89541  40.58557 119.92010  39.53262 125.50915  40.16755
      20 122.72698  39.32320         10.57744   6.481150 125.50915  40.16755 119.92010  39.53262 119.94482  38.47886 125.53387  39.11378
      20 122.75171  38.26903         10.58558   6.481150 125.53387  39.11378 119.94482  38.47886 119.96955  37.42428 125.55860  38.05921
      20 122.77645  37.21405         10.59372   6.481150 125.55860  38.05921 119.96955  37.42428 119.99430  36.36890 125.58336  37.00383
      20 122.80122  36.15826         10.60188   6.481150 125.58336  37.00383 119.99430  36.36890 120.01908  35.31270 125.60813  35.94763
      20 122.82600  35.10166         10.61003   6.481150 125.60813  35.94763 120.01908  35.31270 120.04387  34.25569 125.63292  34.89062
      20 122.85080  34.04424         10.61820   6.481150 125.63292  34.89062 120.04387  34.25569 120.06868  33.19786 125.65773  33.83279
      20 122.87562  32.98601         10.62637   6.481150 125.65773  33.83279 120.06868  33.19786 120.09351  32.13923 125.68256  32.77416
      20 122.90046  31.92696         10.63455   6.481150 125.68256  32.77416 120.09351  32.13923 120.11836  31.07977 125.70741  31.71470
      20 122.92532  30.86710         10.64273   6.481150 125.70741  31.71470 120.11836  31.07977 120.14323  30.01951 125.73228  30.65444
      20 122.95019  29.80643         10.65092   6.481150 125.73228  30.65444 120.14323  30.01951 120.16811  28.95842 125.75716  29.59335
      19 113.51529 127.54015         10.38395   6.669800 116.29996 128.33610 110.71303 127.68278 110.73062 126.74419 116.31755 127.39752
      19 113.53288 126.60120         10.39194   6.669800 116.31755 127.39752 110.73062 126.74419 110.74821 125.80488 116.33514 126.45821
      19 113.55048 125.66153         10.39994   6.669800 116.33514 126.45821 110.74821 125.80488 110.76582 124.86485 116.35275 125.51817
      19 113.56809 124.72113         10.40794   6.669800 116.35275 125.51817 110.76582 124.86485 110.78344 123.92409 116.37037 124.57742
      19 113.58572 123.78002         10.41595   6.669800 116.37037 124.57742 110.78344 123.92409 110.80107 122.98261 116.38800 123.63594
      19 113.60336 122.83817         10.42397   6.669800 116.38800 123.63594 110.80107 122.98261 110.81872 122.04041 116.40565 122.69374
      19 113.62102 121.89561         10.43199   6.669800 116.40565 122.69374 110.81872 122.04041 110.83639 121.09748 116.42332 121.75081
      19 113.63869 120.95231         10.44002   6.669800 116.42332 121.75081 110.83639 121.09748 110.85406 120.15382 116.44099 120.80715
      19 113.65637 120.00830         10.44805   6.669800 116.44099 120.80715 110.85406 120.15382 110.87175 119.20944 116.45868 119.86277
      19 113.67407 119.06355         10.45609   6.669800 116.45868 119.86277 110.87175 119.20944 110.88945 118.26433 116.47638 118.91766
      19 113.69178 118.11808         10.46414   6.669800 116.47638 118.91766 110.88945 118.26433 110.90717 117.31850 116.49410 117.97183
      19 113.70950 117.17188         10.47219   6.669800 116.49410 117.97183 110.90717 117.31850 110.92490 116.37194 116.51183 117.02526
      19 113.72724 116.22495         10.48025   6.669800 116.51183 117.02526 110.92490 116.37194 110.94264 115.42465 116.52957 116.07797
      19 113.74499 115.27730         10.48831   6.669800 116.52957 116.07797 110.94264 115.42465 110.96040 114.47662 116.54733 115.12995
      19 113.76275 114.32891         10.49639   6.669800 116.54733 115.12995 110.96040 114.47662 110.97817 113.52788 116.56510 114.18120
      19 113.78053 113.37980         10.50446   6.669800 116.56510 114.18120 110.97817 113.52788 110.99596 112.57840 116.58289 113.23172
      19 113.79832 112.42995         10.51255   6.669800 116.58289 113.23172 110.99596 112.57840 111.01376 111.62818 116.60069 112.28151
      19 113.81613 111.47938         10.52064   6.669800 116.60069 112.28151 111.01376 111.62818 111.03157 110.67724 116.61850 111.33057
      19 113.83395 110.52807         10.52873   6.669800 116.61850 111.33057 111.03157 110.67724 111.04940 109.72557 116.63633 110.37890
      19 113.85178 109.57603         10.53683   6.669800 116.63633 110.37890 111.04940 109.72557 111.06724 108.77316 116.65417 109.42649
      19 113.86963 108.62326         10.54494   6.669800 116.65417 109.42649 111.06724 108.77316 111.08509 107.82003 116.67202 108.47335
      19 113.88749 107.66975         10.55306   6.669800 116.67202 108.47335 111.08509 107.82003 111.10296 106.86615 116.68989 107.51948
      19 113.90536 106.71551         10.56118   6.669800 116.68989 107.51948 111.10296 106.86615 111.12084 105.91155 116.70777 106.56487
      19 113.92325 105.76054         10.56930   6.669800 116.70777 106.56487 111.12084 105.91155 111.13873 104.95621 116.72566 105.60953
      19 113.94115 104.80483         10.57744   6.669800 116.72566 105.60953 111.13873 104.95621 111.15664 104.00013 116.74357 104.65346
      19 113.95907 103.84839         10.58558   6.669800 116.74357 104.65346 111.15664 104.00013 111.17456 103.04332 116.76149 103.69665
      19 113.97700 102.89121         10.59372   6.669800 116.76149 103.69665 111.17456 103.04332 111.19250 102.08577 116.77943 102.73910
      19 113.99494 101.93329         10.60188   6.669800 116.77943 102.73910 111.19250 102.08577 111.21045 101.12749 116.79738 101.78081
      19 114.01290 100.97464         10.61003   6.669800 116.79738 101.78081 111.21045 101.12749 111.22841 100.16846 116.81534 100.82179
      19 114.03087 100.01525         10.61820   6.669800 116.81534 100.82179 111.22841 100.16846 111.24639  99.20870 116.83332  99.86203
      19 114.04885  99.05512         10.62637   6.669800 116.83332  99.86203 111.24639  99.20870 111.26438  98.24820 116.85131  98.90153
      19 114.06685  98.09425         10.63455   6.669800 116.85131  98.90153 111.26438  98.24820 111.28239  97.28697 116.86932  97.94029
      19 114.08486  97.13264         10.64273   6.669800 116.86932  97.94029 111.28239  97.28697 111.30041  96.32499 116.88734  96.97832
      19 114.10289  96.17029         10.65092   6.669800 116.88734  96.97832 111.30041  96.32499 111.31844  95.36227 116.90537  96.01560
      19 114.12093  95.20721         10.65912   6.669800 116.90537  96.01560 111.31844  95.36227 111.33649  94.39881 116.92342  95.05214
      19 114.13898  94.24338         10.66732   6.669800 116.92342  95.05214 111.33649  94.39881 111.35455  93.43461 116.94148  94.08794
      19 114.15705  93.27880         10.67553   6.669800 116.94148  94.08794 111.35455  93.43461 111.37262  92.46967 116.95955  93.12300
      19 114.17513  92.31349         10.68374   6.669800 116.95955  93.12300 111.37262  92.46967 111.39071  91.50398 116.97764  92.15731
      19 114.19323  91.34743         10.69196   6.669800 116.97764  92.15731 111.39071  91.50398 111.40881  90.53756 116.99574  91.19088
      19 114.21133  90.38064         10.70019   6.669800 116.99574  91.19088 111.40881  90.53756 111.42693  89.57039 117.01386  90.22371
      19 114.22946  89.41309         10.70843   6.669800 117.01386  90.22371 111.42693  89.57039 111.44506  88.60247 117.03199  89.25580
      19 114.24760  88.44480         10.71667   6.669800 117.03199  89.25580 111.44506  88.60247 111.46320  87.63381 117.05013  88.28714
      19 114.26575  87.47577         10.72491   6.669800 117.05013  88.28714 111.46320  87.63381 111.48136  86.66440 117.06829  87.31773
      19 114.28391  86.50599         10.73317   6.669800 117.06829  87.31773 111.48136  86.66440 111.49953  85.69425 117.08646  86.34758
      19 114.30209  85.53547         10.74143   6.669800 117.08646  86.34758 111.49953  85.69425 111.51772  84.72335 117.10465  85.37668
      19 114.32028  84.56419         10.74969   6.669800 117.10465  85.37668 111.51772  84.72335 111.53592  83.75171 117.12285  84.40503
