\wavsamp version 5.1 (Wed Apr 20 08:45:04 PDT 2005)
\processing time 11:46:23 PST 01/03/2007
\character channelID = 1
| order |x_center |y_center |   wavelength   |  angle   |   x0    |   y0    |   x1    |   y1    |   x2    |   y2    |   x3    |   y3    |
| int   |  real   |  real   |    real        |   real   |  real   |  real   |  real   |  real   |  real   |  real   |  real   |  real   |
      20 120.45426 128.33631          9.86350   6.481150 123.23890 129.12588 117.64985 128.49095 117.66961 127.54673 123.25866 128.18166
      20 120.47402 127.39171          9.87109   6.481150 123.25866 128.18166 117.66961 127.54673 117.68938 126.60175 123.27843 127.23668
      20 120.49380 126.44635          9.87869   6.481150 123.27843 127.23668 117.68938 126.60175 117.70917 125.65601 123.29822 126.29094
      20 120.51360 125.50023          9.88629   6.481150 123.29822 126.29094 117.70917 125.65601 117.72898 124.70951 123.31803 125.34444
      20 120.53341 124.55334          9.89390   6.481150 123.31803 125.34444 117.72898 124.70951 117.74880 123.76224 123.33785 124.39717
      20 120.55324 123.60570          9.90151   6.481150 123.33785 124.39717 117.74880 123.76224 117.76863 122.81421 123.35768 123.44914
      20 120.57308 122.65729          9.90913   6.481150 123.35768 123.44914 117.76863 122.81421 117.78848 121.86542 123.37753 122.50035
      20 120.59294 121.70811          9.91675   6.481150 123.37753 122.50035 117.78848 121.86542 117.80835 120.91587 123.39740 121.55080
      20 120.61281 120.75818          9.92439   6.481150 123.39740 121.55080 117.80835 120.91587 117.82823 119.96555 123.41728 120.60048
      20 120.63270 119.80748          9.93202   6.481150 123.41728 120.60048 117.82823 119.96555 117.84812 119.01447 123.43717 119.64939
      20 120.65260 118.85601          9.93967   6.481150 123.43717 119.64939 117.84812 119.01447 117.86803 118.06262 123.45708 118.69755
      20 120.67252 117.90378          9.94731   6.481150 123.45708 118.69755 117.86803 118.06262 117.88796 117.11000 123.47701 117.74493
      20 120.69245 116.95078          9.95497   6.481150 123.47701 117.74493 117.88796 117.11000 117.90790 116.15662 123.49695 116.79155
      20 120.71240 115.99701          9.96263   6.481150 123.49695 116.79155 117.90790 116.15662 117.92786 115.20247 123.51691 115.83740
      20 120.73237 115.04248          9.97030   6.481150 123.51691 115.83740 117.92786 115.20247 117.94783 114.24755 123.53688 114.88248
      20 120.75235 114.08717          9.97797   6.481150 123.53688 114.88248 117.94783 114.24755 117.96782 113.29186 123.55687 113.92679
      20 120.77234 113.13110          9.98565   6.481150 123.55687 113.92679 117.96782 113.29186 117.98782 112.33540 123.57687 112.97033
      20 120.79236 112.17426          9.99333   6.481150 123.57687 112.97033 117.98782 112.33540 118.00784 111.37818 123.59689 112.01311
      20 120.81238 111.21665         10.00102   6.481150 123.59689 112.01311 118.00784 111.37818 118.02787 110.42018 123.61692 111.05511
      20 120.83242 110.25826         10.00872   6.481150 123.61692 111.05511 118.02787 110.42018 118.04792 109.46141 123.63697 110.09634
      20 120.85248 109.29911         10.01642   6.481150 123.63697 110.09634 118.04792 109.46141 118.06799 108.50187 123.65704 109.13680
      20 120.87255 108.33918         10.02413   6.481150 123.65704 109.13680 118.06799 108.50187 118.08807 107.54156 123.67712 108.17649
      20 120.89264 107.37848         10.03184   6.481150 123.67712 108.17649 118.08807 107.54156 118.10816 106.58047 123.69721 107.21540
      20 120.91274 106.41701         10.03956   6.481150 123.69721 107.21540 118.10816 106.58047 118.12827 105.61861 123.71732 106.25354
      20 120.93286 105.45476         10.04729   6.481150 123.71732 106.25354 118.12827 105.61861 118.14840 104.65597 123.73745 105.29090
      20 120.95300 104.49173         10.05502   6.481150 123.73745 105.29090 118.14840 104.65597 118.16854 103.69256 123.75759 104.32749
      20 120.97315 103.52794         10.06276   6.481150 123.75759 104.32749 118.16854 103.69256 118.18870 102.72837 123.77775 103.36330
      20 120.99331 102.56336         10.07050   6.481150 123.77775 103.36330 118.18870 102.72837 118.20887 101.76341 123.79792 102.39834
      20 121.01349 101.59801         10.07825   6.481150 123.79792 102.39834 118.20887 101.76341 118.22906 100.79767 123.81811 101.43260
      20 121.03369 100.63188         10.08600   6.481150 123.81811 101.43260 118.22906 100.79767 118.24927  99.83115 123.83832 100.46608
      20 121.05390  99.66497         10.09377   6.481150 123.83832 100.46608 118.24927  99.83115 118.26949  98.86385 123.85854  99.49878
      20 121.07413  98.69728         10.10153   6.481150 123.85854  99.49878 118.26949  98.86385 118.28972  97.89577 123.87877  98.53070
      20 121.09437  97.72881         10.10931   6.481150 123.87877  98.53070 118.28972  97.89577 118.30997  96.92692 123.89902  97.56185
      20 121.11463  96.75957         10.11709   6.481150 123.89902  97.56185 118.30997  96.92692 118.33024  95.95728 123.91929  96.59221
      20 121.13490  95.78954         10.12487   6.481150 123.91929  96.59221 118.33024  95.95728 118.35052  94.98686 123.93957  95.62179
      20 121.15519  94.81873         10.13266   6.481150 123.93957  95.62179 118.35052  94.98686 118.37082  94.01566 123.95987  94.65059
      20 121.17550  93.84714         10.14046   6.481150 123.95987  94.65059 118.37082  94.01566 118.39113  93.04368 123.98018  93.67861
      20 121.19582  92.87476         10.14826   6.481150 123.98018  93.67861 118.39113  93.04368 118.41146  92.07091 124.00051  92.70584
      20 121.21616  91.90161         10.15607   6.481150 124.00051  92.70584 118.41146  92.07091 118.43180  91.09736 124.02086  91.73229
      20 121.23651  90.92766         10.16389   6.481150 124.02086  91.73229 118.43180  91.09736 118.45216  90.12303 124.04122  90.75796
      20 121.25688  89.95294         10.17171   6.481150 124.04122  90.75796 118.45216  90.12303 118.47254  89.14791 124.06159  89.78284
      20 121.27726  88.97742         10.17954   6.481150 124.06159  89.78284 118.47254  89.14791 118.49293  88.17200 124.08198  88.80693
      20 121.29766  88.00113         10.18737   6.481150 124.08198  88.80693 118.49293  88.17200 118.51334  87.19531 124.10239  87.83024
      20 121.31808  87.02404         10.19521   6.481150 124.10239  87.83024 118.51334  87.19531 118.53376  86.21783 124.12281  86.85276
      20 121.33851  86.04617         10.20306   6.481150 124.12281  86.85276 118.53376  86.21783 118.55420  85.23956 124.14325  85.87449
      20 121.35895  85.06751         10.21091   6.481150 124.14325  85.87449 118.55420  85.23956 118.57465  84.26051 124.16371  84.89544
      20 121.37942  84.08806         10.21876   6.481150 124.16371  84.89544 118.57465  84.26051 118.59512  83.28067 124.18418  83.91559
      20 121.39989  83.10782         10.22663   6.481150 124.18418  83.91559 118.59512  83.28067 118.61561  82.30003 124.20466  82.93496
      20 121.42039  82.12679         10.23450   6.481150 124.20466  82.93496 118.61561  82.30003 118.63611  81.31861 124.22516  81.95354
      20 121.44090  81.14497         10.24237   6.481150 124.22516  81.95354 118.63611  81.31861 118.65663  80.33639 124.24568  80.97132
      20 121.46142  80.16236         10.25026   6.481150 124.24568  80.97132 118.65663  80.33639 118.67716  79.35338 124.26621  79.98831
      20 121.48196  79.17895         10.25814   6.481150 124.26621  79.98831 118.67716  79.35338 118.69771  78.36959 124.28676  79.00451
      20 121.50252  78.19476         10.26604   6.481150 124.28676  79.00451 118.69771  78.36959 118.71828  77.38499 124.30733  78.01992
      20 121.52309  77.20977         10.27394   6.481150 124.30733  78.01992 118.71828  77.38499 118.73886  76.39961 124.32791  77.03454
      20 121.54368  76.22398         10.28184   6.481150 124.32791  77.03454 118.73886  76.39961 118.75945  75.41343 124.34850  76.04835
      20 121.56429  75.23741         10.28976   6.481150 124.34850  76.04835 118.75945  75.41343 118.78007  74.42645 124.36912  75.06138
      20 121.58491  74.25003         10.29767   6.481150 124.36912  75.06138 118.78007  74.42645 118.80069  73.43868 124.38975  74.07361
      20 121.60554  73.26186         10.30560   6.481150 124.38975  74.07361 118.80069  73.43868 118.82134  72.45011 124.41039  73.08504
      20 121.62619  72.27290         10.31353   6.481150 124.41039  73.08504 118.82134  72.45011 118.84200  71.46074 124.43105  72.09567
      20 121.64686  71.28313         10.32146   6.481150 124.43105  72.09567 118.84200  71.46074 118.86267  70.47058 124.45172  71.10551
      20 121.66755  70.29257         10.32941   6.481150 124.45172  71.10551 118.86267  70.47058 118.88337  69.47962 124.47242  70.11455
      20 121.68824  69.30121         10.33736   6.481150 124.47242  70.11455 118.88337  69.47962 118.90407  68.48786 124.49312  69.12279
      20 121.70896  68.30905         10.34531   6.481150 124.49312  69.12279 118.90407  68.48786 118.92480  67.49530 124.51385  68.13023
      20 121.72969  67.31609         10.35327   6.481150 124.51385  68.13023 118.92480  67.49530 118.94554  66.50194 124.53459  67.13687
      20 121.75044  66.32233         10.36124   6.481150 124.53459  67.13687 118.94554  66.50194 118.96629  65.50778 124.55534  66.14271
      20 121.77120  65.32777         10.36921   6.481150 124.55534  66.14271 118.96629  65.50778 118.98706  64.51281 124.57611  65.14774
      20 121.79198  64.33240         10.37719   6.481150 124.57611  65.14774 118.98706  64.51281 119.00785  63.51705 124.59690  64.15198
      20 121.81278  63.33623         10.38518   6.481150 124.59690  64.15198 119.00785  63.51705 119.02865  62.52048 124.61771  63.15541
      20 121.83359  62.33926         10.39317   6.481150 124.61771  63.15541 119.02865  62.52048 119.04947  61.52311 124.63852  62.15804
      20 121.85442  61.34149         10.40117   6.481150 124.63852  62.15804 119.04947  61.52311 119.07031  60.52493 124.65936  61.15986
      20 121.87526  60.34291         10.40917   6.481150 124.65936  61.15986 119.07031  60.52493 119.09116  59.52595 124.68021  60.16088
      20 121.89612  59.34352         10.41718   6.481150 124.68021  60.16088 119.09116  59.52595 119.11203  58.52616 124.70108  59.16109
      20 121.91700  58.34333         10.42520   6.481150 124.70108  59.16109 119.11203  58.52616 119.13291  57.52556 124.72196  58.16049
      20 121.93789  57.34233         10.43322   6.481150 124.72196  58.16049 119.13291  57.52556 119.15381  56.52416 124.74286  57.15909
      20 121.95879  56.34053         10.44125   6.481150 124.74286  57.15909 119.15381  56.52416 119.17473  55.52195 124.76378  56.15688
      20 121.97972  55.33791         10.44928   6.481150 124.76378  56.15688 119.17473  55.52195 119.19566  54.51893 124.78471  55.15386
      20 122.00066  54.33449         10.45732   6.481150 124.78471  55.15386 119.19566  54.51893 119.21661  53.51511 124.80566  54.15004
      20 122.02161  53.33026         10.46537   6.481150 124.80566  54.15004 119.21661  53.51511 119.23757  52.51047 124.82662  53.14540
      20 122.04259  52.32522         10.47342   6.481150 124.82662  53.14540 119.23757  52.51047 119.25855  51.50502 124.84760  52.13995
      20 122.06358  51.31936         10.48148   6.481150 124.84760  52.13995 119.25855  51.50502 119.27955  50.49876 124.86860  51.13369
      20 122.08458  50.31270         10.48955   6.481150 124.86860  51.13369 119.27955  50.49876 119.30056  49.49169 124.88961  50.12662
      20 122.10560  49.30522         10.49762   6.481150 124.88961  50.12662 119.30056  49.49169 119.32159  48.48381 124.91064  49.11874
      20 122.12664  48.29693         10.50570   6.481150 124.91064  49.11874 119.32159  48.48381 119.34263  47.47511 124.93168  48.11004
      20 122.14769  47.28782         10.51378   6.481150 124.93168  48.11004 119.34263  47.47511 119.36370  46.46560 124.95275  47.10053
      20 122.16876  46.27791         10.52188   6.481150 124.95275  47.10053 119.36370  46.46560 119.38477  45.45527 124.97382  46.09020
      20 122.18984  45.26717         10.52997   6.481150 124.97382  46.09020 119.38477  45.45527 119.40587  44.44413 124.99492  45.07906
      20 122.21095  44.25562         10.53808   6.481150 124.99492  45.07906 119.40587  44.44413 119.42698  43.43218 125.01603  44.06710
      20 122.23206  43.24326         10.54618   6.481150 125.01603  44.06710 119.42698  43.43218 119.44810  42.41940 125.03715  43.05433
      20 122.25320  42.23008         10.55430   6.481150 125.03715  43.05433 119.44810  42.41940 119.46924  41.40581 125.05829  42.04074
      20 122.27435  41.21607         10.56242   6.481150 125.05829  42.04074 119.46924  41.40581 119.49040  40.39140 125.07945  41.02633
      20 122.29552  40.20126         10.57055   6.481150 125.07945  41.02633 119.49040  40.39140 119.51158  39.37617 125.10063  40.01110
      20 122.31670  39.18562         10.57868   6.481150 125.10063  40.01110 119.51158  39.37617 119.53277  38.36012 125.12182  38.99505
      20 122.33790  38.16916         10.58683   6.481150 125.12182  38.99505 119.53277  38.36012 119.55398  37.34326 125.14303  37.97819
      20 122.35911  37.15188         10.59497   6.481150 125.14303  37.97819 119.55398  37.34326 119.57520  36.32557 125.16425  36.96050
      20 122.38034  36.13378         10.60313   6.481150 125.16425  36.96050 119.57520  36.32557 119.59644  35.30706 125.18549  35.94199
      20 122.40159  35.11486         10.61128   6.481150 125.18549  35.94199 119.59644  35.30706 119.61770  34.28773 125.20675  34.92265
      20 122.42286  34.09512         10.61945   6.481150 125.20675  34.92265 119.61770  34.28773 119.63897  33.26757 125.22802  33.90250
      20 122.44414  33.07455         10.62762   6.481150 125.22802  33.90250 119.63897  33.26757 119.66026  32.24659 125.24931  32.88152
      20 122.46544  32.05316         10.63580   6.481150 125.24931  32.88152 119.66026  32.24659 119.68156  31.22479 125.27061  31.85972
      20 122.48675  31.03094         10.64398   6.481150 125.27061  31.85972 119.68156  31.22479 119.70288  30.20216 125.29194  30.83709
      20 122.50808  30.00790         10.65218   6.481150 125.29194  30.83709 119.70288  30.20216 119.72422  29.17870 125.31327  29.81363
      20 122.52943  28.98403         10.66037   6.481150 125.31327  29.81363 119.72422  29.17870 119.74558  28.15442 125.33463  28.78935
      20 122.55079  27.95934         10.66858   6.481150 125.33463  28.78935 119.74558  28.15442 119.76695  27.12932 125.35600  27.76425
      20 122.57217  26.93382         10.67679   6.481150 125.35600  27.76425 119.76695  27.12932 119.78834  26.10338 125.37739  26.73831
      20 122.59356  25.90747         10.68500   6.481150 125.37739  26.73831 119.78834  26.10338 119.80974  25.07662 125.39879  25.71155
      20 122.61498  24.88029         10.69322   6.481150 125.39879  25.71155 119.80974  25.07662 119.83116  24.04902 125.42021  24.68395
      20 122.63641  23.85228         10.70145   6.481150 125.42021  24.68395 119.83116  24.04902 119.85260  23.02060 125.44165  23.65553
      19 113.49966 128.18901         10.37719   6.669800 116.28591 128.98791 110.69898 128.33458 110.71341 127.39011 116.30034 128.04344
      19 113.51409 127.24417         10.38518   6.669800 116.30034 128.04344 110.71341 127.39011 110.72784 126.44489 116.31477 127.09822
      19 113.52853 126.29857         10.39317   6.669800 116.31477 127.09822 110.72784 126.44489 110.74229 125.49890 116.32922 126.15223
      19 113.54299 125.35220         10.40117   6.669800 116.32922 126.15223 110.74229 125.49890 110.75675 124.55215 116.34368 125.20548
      19 113.55745 124.40507         10.40917   6.669800 116.34368 125.20548 110.75675 124.55215 110.77122 123.60464 116.35815 124.25797
      19 113.57193 123.45717         10.41718   6.669800 116.35815 124.25797 110.77122 123.60464 110.78570 122.65637 116.37263 123.30969
      19 113.58642 122.50851         10.42520   6.669800 116.37263 123.30969 110.78570 122.65637 110.80020 121.70732 116.38713 122.36065
      19 113.60091 121.55909         10.43322   6.669800 116.38713 122.36065 110.80020 121.70732 110.81470 120.75752 116.40163 121.41085
      19 113.61542 120.60890         10.44125   6.669800 116.40163 121.41085 110.81470 120.75752 110.82922 119.80695 116.41615 120.46027
      19 113.62994 119.65795         10.44928   6.669800 116.41615 120.46027 110.82922 119.80695 110.84374 118.85561 116.43067 119.50894
      19 113.64448 118.70622         10.45732   6.669800 116.43067 119.50894 110.84374 118.85561 110.85828 117.90350 116.44521 118.55683
      19 113.65902 117.75373         10.46537   6.669800 116.44521 118.55683 110.85828 117.90350 110.87283 116.95063 116.45976 117.60396
      19 113.67357 116.80047         10.47342   6.669800 116.45976 117.60396 110.87283 116.95063 110.88739 115.99699 116.47432 116.65031
      19 113.68814 115.84645         10.48148   6.669800 116.47432 116.65031 110.88739 115.99699 110.90196 115.04257 116.48889 115.69590
      19 113.70272 114.89165         10.48955   6.669800 116.48889 115.69590 110.90196 115.04257 110.91654 114.08739 116.50347 114.74072
      19 113.71730 113.93608         10.49762   6.669800 116.50347 114.74072 110.91654 114.08739 110.93114 113.13144 116.51807 113.78477
      19 113.73190 112.97975         10.50570   6.669800 116.51807 113.78477 110.93114 113.13144 110.94574 112.17472 116.53267 112.82805
      19 113.74651 112.02264         10.51378   6.669800 116.53267 112.82805 110.94574 112.17472 110.96036 111.21722 116.54729 111.87055
      19 113.76113 111.06476         10.52188   6.669800 116.54729 111.87055 110.96036 111.21722 110.97498 110.25896 116.56191 110.91228
      19 113.77577 110.10610         10.52997   6.669800 116.56191 110.91228 110.97498 110.25896 110.98962 109.29992 116.57655 109.95324
      19 113.79041 109.14668         10.53808   6.669800 116.57655 109.95324 110.98962 109.29992 111.00427 108.34010 116.59120 108.99343
      19 113.80507 108.18648         10.54618   6.669800 116.59120 108.99343 111.00427 108.34010 111.01893 107.37951 116.60586 108.03284
      19 113.81973 107.22550         10.55430   6.669800 116.60586 108.03284 111.01893 107.37951 111.03360 106.41815 116.62053 107.07148
      19 113.83441 106.26375         10.56242   6.669800 116.62053 107.07148 111.03360 106.41815 111.04829 105.45601 116.63522 106.10934
      19 113.84910 105.30122         10.57055   6.669800 116.63522 106.10934 111.04829 105.45601 111.06298 104.49310 116.64991 105.14643
      19 113.86380 104.33792         10.57868   6.669800 116.64991 105.14643 111.06298 104.49310 111.07769 103.52941 116.66462 104.18274
      19 113.87851 103.37384         10.58683   6.669800 116.66462 104.18274 111.07769 103.52941 111.09241 102.56494 116.67934 103.21827
      19 113.89324 102.40898         10.59497   6.669800 116.67934 103.21827 111.09241 102.56494 111.10714 101.59969 116.69407 102.25302
      19 113.90797 101.44335         10.60313   6.669800 116.69407 102.25302 111.10714 101.59969 111.12188 100.63366 116.70881 101.28699
      19 113.92272 100.47693         10.61128   6.669800 116.70881 101.28699 111.12188 100.63366 111.13663  99.66686 116.72356 100.32019
      19 113.93747  99.50973         10.61945   6.669800 116.72356 100.32019 111.13663  99.66686 111.15139  98.69927 116.73832  99.35260
      19 113.95224  98.54176         10.62762   6.669800 116.73832  99.35260 111.15139  98.69927 111.16616  97.73090 116.75309  98.38423
      19 113.96702  97.57300         10.63580   6.669800 116.75309  98.38423 111.16616  97.73090 111.18095  96.76176 116.76788  97.41508
      19 113.98181  96.60346         10.64398   6.669800 116.76788  97.41508 111.18095  96.76176 111.19575  95.79183 116.78268  96.44515
      19 113.99662  95.63314         10.65218   6.669800 116.78268  96.44515 111.19575  95.79183 111.21055  94.82111 116.79748  95.47444
      19 114.01143  94.66203         10.66037   6.669800 116.79748  95.47444 111.21055  94.82111 111.22537  93.84961 116.81230  94.50294
