\wavsamp version 5.0 (Thu May  9 10:19:35 PDT 2002)
\processing time 21:36:01 PST 12/08/2003
\character channelID = 1
| order |x_center |y_center |   wavelength   |  angle   |   x0    |   y0    |   x1    |   y1    |   x2    |   y2    |   x3    |   y3    |
| int   |  real   |  real   |    real        |   real   |  real   |  real   |  real   |  real   |  real   |  real   |  real   |  real   |
      20 120.88319 127.99667          9.89276   6.481150 123.97679 128.84219 117.76673 128.13671 117.78960 127.15115 123.99965 127.85663
      20 120.90607 127.01073          9.90037   6.481150 123.99965 127.85663 117.78960 127.15115 117.81248 126.16484 124.02254 126.87032
      20 120.92896 126.02404          9.90799   6.481150 124.02254 126.87032 117.81248 126.16484 117.83538 125.17776 124.04544 125.88324
      20 120.95187 125.03659          9.91562   6.481150 124.04544 125.88324 117.83538 125.17776 117.85830 124.18993 124.06836 124.89541
      20 120.97480 124.04837          9.92325   6.481150 124.06836 124.89541 117.85830 124.18993 117.88124 123.20134 124.09129 123.90681
      20 120.99774 123.05940          9.93088   6.481150 124.09129 123.90681 117.88124 123.20134 117.90419 122.21198 124.11425 122.91746
      20 121.02071 122.06966          9.93852   6.481150 124.11425 122.91746 117.90419 122.21198 117.92716 121.22187 124.13722 121.92734
      20 121.04369 121.07917          9.94617   6.481150 124.13722 121.92734 117.92716 121.22187 117.95015 120.23099 124.16021 120.93647
      20 121.06669 120.08791          9.95383   6.481150 124.16021 120.93647 117.95015 120.23099 117.97316 119.23935 124.18322 119.94483
      20 121.08970 119.09589          9.96149   6.481150 124.18322 119.94483 117.97316 119.23935 117.99619 118.24695 124.20624 118.95242
      20 121.11274 118.10310          9.96915   6.481150 124.20624 118.95242 117.99619 118.24695 118.01923 117.25378 124.22929 117.95926
      20 121.13579 117.10955          9.97682   6.481150 124.22929 117.95926 118.01923 117.25378 118.04229 116.25985 124.25235 116.96533
      20 121.15886 116.11524          9.98450   6.481150 124.25235 116.96533 118.04229 116.25985 118.06537 115.26515 124.27542 115.97063
      20 121.18194 115.12016          9.99218   6.481150 124.27542 115.97063 118.06537 115.26515 118.08846 114.26969 124.29852 114.97517
      20 121.20505 114.12432          9.99987   6.481150 124.29852 114.97517 118.08846 114.26969 118.11158 113.27346 124.32163 113.97894
      20 121.22817 113.12771         10.00757   6.481150 124.32163 113.97894 118.11158 113.27346 118.13471 112.27647 124.34477 112.98195
      20 121.25131 112.13033         10.01527   6.481150 124.34477 112.98195 118.13471 112.27647 118.15786 111.27871 124.36792 111.98419
      20 121.27447 111.13218         10.02298   6.481150 124.36792 111.98419 118.15786 111.27871 118.18103 110.28018 124.39108 110.98566
      20 121.29765 110.13327         10.03069   6.481150 124.39108 110.98566 118.18103 110.28018 118.20421 109.28088 124.41427 109.98636
      20 121.32084 109.13359         10.03841   6.481150 124.41427 109.98636 118.20421 109.28088 118.22741 108.28082 124.43747 108.98629
      20 121.34405 108.13314         10.04613   6.481150 124.43747 108.98629 118.22741 108.28082 118.25063 107.27998 124.46069 107.98546
      20 121.36728 107.13192         10.05386   6.481150 124.46069 107.98546 118.25063 107.27998 118.27387 106.27837 124.48393 106.98385
      20 121.39053 106.12992         10.06160   6.481150 124.48393 106.98385 118.27387 106.27837 118.29713 105.27600 124.50719 105.98147
      20 121.41379 105.12716         10.06934   6.481150 124.50719 105.98147 118.29713 105.27600 118.32040 104.27285 124.53046 104.97833
      20 121.43708 104.12363         10.07709   6.481150 124.53046 104.97833 118.32040 104.27285 118.34370 103.26893 124.55375 103.97440
      20 121.46038 103.11932         10.08485   6.481150 124.55375 103.97440 118.34370 103.26893 118.36701 102.26423 124.57706 102.96971
      20 121.48370 102.11424         10.09261   6.481150 124.57706 102.96971 118.36701 102.26423 118.39033 101.25877 124.60039 101.96425
      20 121.50704 101.10839         10.10037   6.481150 124.60039 101.96425 118.39033 101.25877 118.41368 100.25253 124.62374 100.95801
      20 121.53039 100.10176         10.10815   6.481150 124.62374 100.95801 118.41368 100.25253 118.43704  99.24552 124.64710  99.95099
      20 121.55376  99.09436         10.11592   6.481150 124.64710  99.95099 118.43704  99.24552 118.46043  98.23773 124.67048  98.94320
      20 121.57716  98.08618         10.12371   6.481150 124.67048  98.94320 118.46043  98.23773 118.48383  97.22916 124.69388  97.93464
      20 121.60056  97.07723         10.13150   6.481150 124.69388  97.93464 118.48383  97.22916 118.50724  96.21982 124.71730  96.92530
      20 121.62399  96.06750         10.13930   6.481150 124.71730  96.92530 118.50724  96.21982 118.53068  95.20970 124.74074  95.91518
      20 121.64744  95.05700         10.14710   6.481150 124.74074  95.91518 118.53068  95.20970 118.55414  94.19881 124.76419  94.90429
      20 121.67090  94.04571         10.15491   6.481150 124.76419  94.90429 118.55414  94.19881 118.57761  93.18714 124.78766  93.89261
      20 121.69438  93.03365         10.16272   6.481150 124.78766  93.89261 118.57761  93.18714 118.60110  92.17469 124.81115  92.88016
      20 121.71788  92.02081         10.17054   6.481150 124.81115  92.88016 118.60110  92.17469 118.62461  91.16146 124.83466  91.86693
      20 121.74140  91.00719         10.17837   6.481150 124.83466  91.86693 118.62461  91.16146 118.64813  90.14745 124.85819  90.85292
      20 121.76493  89.99279         10.18620   6.481150 124.85819  90.85292 118.64813  90.14745 118.67168  89.13266 124.88173  89.83813
      20 121.78849  88.97761         10.19404   6.481150 124.88173  89.83813 118.67168  89.13266 118.69524  88.11708 124.90530  88.82256
      20 121.81206  87.96165         10.20188   6.481150 124.90530  88.82256 118.69524  88.11708 118.71882  87.10073 124.92888  87.80621
      20 121.83565  86.94490         10.20973   6.481150 124.92888  87.80621 118.71882  87.10073 118.74242  86.08360 124.95248  86.78907
      20 121.85926  85.92738         10.21759   6.481150 124.95248  86.78907 118.74242  86.08360 118.76604  85.06568 124.97609  85.77116
      20 121.88288  84.90907         10.22545   6.481150 124.97609  85.77116 118.76604  85.06568 118.78967  84.04698 124.99973  84.75246
      20 121.90653  83.88998         10.23332   6.481150 124.99973  84.75246 118.78967  84.04698 118.81332  83.02749 125.02338  83.73297
      20 121.93019  82.87010         10.24120   6.481150 125.02338  83.73297 118.81332  83.02749 118.83700  82.00723 125.04705  82.71270
      20 121.95387  81.84944         10.24908   6.481150 125.04705  82.71270 118.83700  82.00723 118.86069  80.98617 125.07074  81.69165
      20 121.97757  80.82799         10.25697   6.481150 125.07074  81.69165 118.86069  80.98617 118.88439  79.96433 125.09445  80.66981
      20 122.00129  79.80576         10.26486   6.481150 125.09445  80.66981 118.88439  79.96433 118.90812  78.94170 125.11818  79.64718
      20 122.02502  78.78274         10.27276   6.481150 125.11818  79.64718 118.90812  78.94170 118.93186  77.91829 125.14192  78.62377
      20 122.04877  77.75893         10.28066   6.481150 125.14192  78.62377 118.93186  77.91829 118.95563  76.89409 125.16568  77.59957
      20 122.07255  76.73433         10.28857   6.481150 125.16568  77.59957 118.95563  76.89409 118.97941  75.86910 125.18947  76.57458
      20 122.09634  75.70895         10.29649   6.481150 125.18947  76.57458 118.97941  75.86910 119.00321  74.84332 125.21326  75.54880
      20 122.12015  74.68278         10.30441   6.481150 125.21326  75.54880 119.00321  74.84332 119.02703  73.81676 125.23708  74.52223
      20 122.14397  73.65582         10.31234   6.481150 125.23708  74.52223 119.02703  73.81676 119.05086  72.78940 125.26092  73.49488
      20 122.16782  72.62806         10.32028   6.481150 125.26092  73.49488 119.05086  72.78940 119.07472  71.76125 125.28477  72.46673
      20 122.19168  71.59952         10.32822   6.481150 125.28477  72.46673 119.07472  71.76125 119.09859  70.73231 125.30865  71.43779
      20 122.21556  70.57019         10.33617   6.481150 125.30865  71.43779 119.09859  70.73231 119.12248  69.70258 125.33254  70.40806
      20 122.23946  69.54006         10.34412   6.481150 125.33254  70.40806 119.12248  69.70258 119.14639  68.67206 125.35645  69.37754
      20 122.26338  68.50914         10.35208   6.481150 125.35645  69.37754 119.14639  68.67206 119.17032  67.64074 125.38037  68.34622
      20 122.28732  67.47743         10.36005   6.481150 125.38037  68.34622 119.17032  67.64074 119.19426  66.60863 125.40432  67.31411
      20 122.31127  66.44492         10.36802   6.481150 125.40432  67.31411 119.19426  66.60863 119.21823  65.57573 125.42829  66.28121
      20 122.33525  65.41162         10.37600   6.481150 125.42829  66.28121 119.21823  65.57573 119.24221  64.54203 125.45227  65.24751
      20 122.35924  64.37752         10.38399   6.481150 125.45227  65.24751 119.24221  64.54203 119.26621  63.50754 125.47627  64.21301
      20 122.38325  63.34263         10.39198   6.481150 125.47627  64.21301 119.26621  63.50754 119.29023  62.47225 125.50029  63.17772
      20 122.40728  62.30694         10.39997   6.481150 125.50029  63.17772 119.29023  62.47225 119.31427  61.43616 125.52433  62.14164
      20 122.43133  61.27046         10.40798   6.481150 125.52433  62.14164 119.31427  61.43616 119.33833  60.39928 125.54839  61.10475
      20 122.45540  60.23317         10.41598   6.481150 125.54839  61.10475 119.33833  60.39928 119.36240  59.36159 125.57246  60.06707
      20 122.47948  59.19509         10.42400   6.481150 125.57246  60.06707 119.36240  59.36159 119.38650  58.32311 125.59656  59.02859
      20 122.50358  58.15621         10.43202   6.481150 125.59656  59.02859 119.38650  58.32311 119.41061  57.28383 125.62067  57.98931
      20 122.52771  57.11653         10.44005   6.481150 125.62067  57.98931 119.41061  57.28383 119.43474  56.24375 125.64480  56.94923
      20 122.55185  56.07605         10.44808   6.481150 125.64480  56.94923 119.43474  56.24375 119.45889  55.20287 125.66895  55.90835
      20 122.57601  55.03477         10.45612   6.481150 125.66895  55.90835 119.45889  55.20287 119.48306  54.16119 125.69312  54.86667
      20 122.60018  53.99269         10.46417   6.481150 125.69312  54.86667 119.48306  54.16119 119.50725  53.11871 125.71730  53.82419
      20 122.62438  52.94981         10.47222   6.481150 125.71730  53.82419 119.50725  53.11871 119.53145  52.07542 125.74151  52.78090
      20 122.64859  51.90612         10.48028   6.481150 125.74151  52.78090 119.53145  52.07542 119.55568  51.03134 125.76573  51.73681
      20 122.67283  50.86163         10.48835   6.481150 125.76573  51.73681 119.55568  51.03134 119.57992  49.98645 125.78998  50.69192
      20 122.69708  49.81634         10.49642   6.481150 125.78998  50.69192 119.57992  49.98645 119.60418  48.94075 125.81424  49.64623
      20 122.72135  48.77024         10.50449   6.481150 125.81424  49.64623 119.60418  48.94075 119.62846  47.89425 125.83852  48.59973
      20 122.74564  47.72334         10.51258   6.481150 125.83852  48.59973 119.62846  47.89425 119.65276  46.84695 125.86282  47.55242
      20 122.76995  46.67563         10.52067   6.481150 125.86282  47.55242 119.65276  46.84695 119.67708  45.79884 125.88714  46.50431
      20 122.79428  45.62711         10.52876   6.481150 125.88714  46.50431 119.67708  45.79884 119.70142  44.74992 125.91147  45.45539
      20 122.81862  44.57779         10.53687   6.481150 125.91147  45.45539 119.70142  44.74992 119.72577  43.70019 125.93583  44.40567
      20 122.84299  43.52767         10.54497   6.481150 125.93583  44.40567 119.72577  43.70019 119.75014  42.64966 125.96020  43.35514
      20 122.86737  42.47673         10.55309   6.481150 125.96020  43.35514 119.75014  42.64966 119.77454  41.59832 125.98459  42.30380
      20 122.89177  41.42498         10.56121   6.481150 125.98459  42.30380 119.77454  41.59832 119.79895  40.54617 126.00900  41.25165
      20 122.91619  40.37243         10.56934   6.481150 126.00900  41.25165 119.79895  40.54617 119.82338  39.49321 126.03343  40.19869
      20 122.94063  39.31906         10.57747   6.481150 126.03343  40.19869 119.82338  39.49321 119.84783  38.43944 126.05788  39.14492
      20 122.96509  38.26489         10.58561   6.481150 126.05788  39.14492 119.84783  38.43944 119.87229  37.38486 126.08235  38.09034
      20 122.98957  37.20990         10.59376   6.481150 126.08235  38.09034 119.87229  37.38486 119.89678  36.32947 126.10684  37.03494
      20 123.01406  36.15410         10.60191   6.481150 126.10684  37.03494 119.89678  36.32947 119.92129  35.27326 126.13134  35.97874
      20 123.03858  35.09749         10.61007   6.481150 126.13134  35.97874 119.92129  35.27326 119.94581  34.21624 126.15587  34.92172
      20 123.06311  34.04007         10.61823   6.481150 126.15587  34.92172 119.94581  34.21624 119.97035  33.15841 126.18041  33.86389
      20 123.08766  32.98183         10.62640   6.481150 126.18041  33.86389 119.97035  33.15841 119.99492  32.09977 126.20497  32.80525
      20 123.11223  31.92278         10.63458   6.481150 126.20497  32.80525 119.99492  32.09977 120.01950  31.04031 126.22955  31.74579
      20 123.13682  30.86291         10.64276   6.481150 126.22955  31.74579 120.01950  31.04031 120.04410  29.98004 126.25415  30.68551
      20 123.16143  29.80223         10.65095   6.481150 126.25415  30.68551 120.04410  29.98004 120.06872  28.91894 126.27877  29.62442
      20 123.18606  28.74073         10.65915   6.481150 126.27877  29.62442 120.06872  28.91894 120.09335  27.85704 126.30341  28.56251
      20 123.21071  27.67841         10.66735   6.481150 126.30341  28.56251 120.09335  27.85704 120.11801  26.79431 126.32807  27.49979
      20 123.23538  26.61528         10.67556   6.481150 126.32807  27.49979 120.11801  26.79431 120.14268  25.73077 126.35274  26.43625
      20 123.26006  25.55133         10.68378   6.481150 126.35274  26.43625 120.14268  25.73077 120.16738  24.66641 126.37744  25.37189
      20 123.28476  24.48656         10.69200   6.481150 126.37744  25.37189 120.16738  24.66641 120.19209  23.60123 126.40215  24.30671
      20 123.30949  23.42097         10.70022   6.481150 126.40215  24.30671 120.19209  23.60123 120.21683  22.53523 126.42688  23.24071
      20 123.33423  22.35456         10.70846   6.481150 126.42688  23.24071 120.21683  22.53523 120.24158  21.46841 126.45163  22.17389
      20 123.35899  21.28733         10.71670   6.481150 126.45163  22.17389 120.24158  21.46841 120.26635  20.40077 126.47640  21.10625
      20 123.38377  20.21928         10.72495   6.481150 126.47640  21.10625 120.26635  20.40077 120.29114  19.33231 126.50119  20.03779
      20 123.40857  19.15041         10.73320   6.481150 126.50119  20.03779 120.29114  19.33231 120.31595  18.26303 126.52600  18.96850
      20 123.43339  18.08071         10.74146   6.481150 126.52600  18.96850 120.31595  18.26303 120.34077  17.19292 126.55083  17.89839
      20 123.45823  17.01019         10.74972   6.481150 126.55083  17.89839 120.34077  17.19292 120.36562  16.12199 126.57568  16.82746
      20 123.48308  15.93885         10.75800   6.481150 126.57568  16.82746 120.36562  16.12199 120.39049  15.05023 126.60054  15.75571
      20 123.50796  14.86668         10.76628   6.481150 126.60054  15.75571 120.39049  15.05023 120.41537  13.97765 126.62543  14.68313
      20 123.53285  13.79369         10.77456   6.481150 126.62543  14.68313 120.41537  13.97765 120.44028  12.90425 126.65033  13.60973
      20 123.55777  12.71987         10.78285   6.481150 126.65033  13.60973 120.44028  12.90425 120.46520  11.83002 126.67526  12.53549
      20 123.58270  11.64523         10.79115   6.481150 126.67526  12.53549 120.46520  11.83002 120.49014  10.75496 126.70020  11.46044
      20 123.60765  10.56976         10.79945   6.481150 126.70020  11.46044 120.49014  10.75496 120.51511   9.67908 126.72516  10.38455
      20 123.63262   9.49346         10.80776   6.481150 126.72516  10.38455 120.51511   9.67908 120.54009   8.60236 126.75014   9.30784
      20 123.65762   8.41633         10.81608   6.481150 126.75014   9.30784 120.54009   8.60236 120.56509   7.52482 126.77514   8.23030
      20 123.68263   7.33837         10.82440   6.481150 126.77514   8.23030 120.56509   7.52482 120.59011   6.44645 126.80016   7.15193
      20 123.70765   6.25959         10.83273   6.481150 126.80016   7.15193 120.59011   6.44645 120.61515   5.36725 126.82520   6.07273
      20 123.73270   5.17997         10.84107   6.481150 126.82520   6.07273 120.61515   5.36725 120.64020   4.28722 126.85026   4.99270
      20 123.75777   4.09953         10.84941   6.481150 126.85026   4.99270 120.64020   4.28722 120.66528   3.20636 126.87534   3.91183
      20 123.78286   3.01825         10.85776   6.481150 126.87534   3.91183 120.66528   3.20636 120.69038   2.12466 126.90043   2.83014
      20 123.80796   1.93614         10.86612   6.481150 126.90043   2.83014 120.69038   2.12466 120.71549   1.04214 126.92555   1.74761
      20 123.83309   0.85320         10.87448   6.481150 126.92555   1.74761 120.71549   1.04214 120.74063  -0.04122 126.95069   0.66426
      19 113.77055 127.53637         10.38399   6.669800 116.86568 128.36863 110.65798 127.64271 110.67541 126.70412 116.88311 127.43004
      19 113.78798 126.59743         10.39198   6.669800 116.88311 127.43004 110.67541 126.70412 110.69284 125.76481 116.90054 126.49073
      19 113.80542 125.65775         10.39997   6.669800 116.90054 126.49073 110.69284 125.76481 110.71029 124.82478 116.91799 125.55070
      19 113.82288 124.71736         10.40798   6.669800 116.91799 125.55070 110.71029 124.82478 110.72776 123.88402 116.93546 124.60994
      19 113.84035 123.77624         10.41598   6.669800 116.93546 124.60994 110.72776 123.88402 110.74524 122.94254 116.95294 123.66846
      19 113.85783 122.83440         10.42400   6.669800 116.95294 123.66846 110.74524 122.94254 110.76273 122.00034 116.97043 122.72626
      19 113.87533 121.89183         10.43202   6.669800 116.97043 122.72626 110.76273 122.00034 110.78023 121.05741 116.98793 121.78333
      19 113.89284 120.94854         10.44005   6.669800 116.98793 121.78333 110.78023 121.05741 110.79775 120.11375 117.00545 120.83967
      19 113.91036 120.00452         10.44808   6.669800 117.00545 120.83967 110.79775 120.11375 110.81528 119.16937 117.02298 119.89529
      19 113.92790 119.05978         10.45612   6.669800 117.02298 119.89529 110.81528 119.16937 110.83282 118.22426 117.04052 118.95018
      19 113.94545 118.11431         10.46417   6.669800 117.04052 118.95018 110.83282 118.22426 110.85038 117.27843 117.05808 118.00435
      19 113.96302 117.16811         10.47222   6.669800 117.05808 118.00435 110.85038 117.27843 110.86795 116.33187 117.07565 117.05779
      19 113.98059 116.22118         10.48028   6.669800 117.07565 117.05779 110.86795 116.33187 110.88554 115.38457 117.09324 116.11049
      19 113.99819 115.27352         10.48835   6.669800 117.09324 116.11049 110.88554 115.38457 110.90314 114.43655 117.11084 115.16247
      19 114.01579 114.32514         10.49642   6.669800 117.11084 115.16247 110.90314 114.43655 110.92075 113.48780 117.12845 114.21372
      19 114.03341 113.37602         10.50449   6.669800 117.12845 114.21372 110.92075 113.48780 110.93837 112.53832 117.14607 113.26424
      19 114.05104 112.42618         10.51258   6.669800 117.14607 113.26424 110.93837 112.53832 110.95601 111.58811 117.16371 112.31403
      19 114.06869 111.47560         10.52067   6.669800 117.16371 112.31403 110.95601 111.58811 110.97367 110.63717 117.18137 111.36309
      19 114.08635 110.52430         10.52876   6.669800 117.18137 111.36309 110.97367 110.63717 110.99133 109.68550 117.19903 110.41142
