\wavsamp version 3.0 (Fri Jul 28 12:09:58 PDT 2000)
\processing time 08:51:36 PST 10/09/2001
| order |x_center |y_center |   wavelength   |  angle   |   x0    |   y0    |   x1    |   y1    |   x2    |   y2    |   x3    |   y3    |
| int   |  real   |  real   |    real        |   real   |  real   |  real   |  real   |  real   |  real   |  real   |  real   |  real   |
2         78.60708  82.34401         13.85600   0.000000  95.69130  82.80923  61.51730  82.80923  61.52299  81.87878  95.69699  81.87878
2         78.61304  81.41354         13.94068   0.000000  95.69699  81.87878  61.52299  81.87878  61.52922  80.94831  95.70322  80.94831
2         78.61953  80.48307         14.02535   0.000000  95.70322  80.94831  61.52922  80.94831  61.53599  80.01783  95.70999  80.01783
2         78.62657  79.55259         14.11003   0.000000  95.70999  80.01783  61.53599  80.01783  61.54329  79.08734  95.71729  79.08734
2         78.63415  78.62209         14.19471   0.000000  95.71729  79.08734  61.54329  79.08734  61.55114  78.15684  95.72514  78.15684
2         78.64227  77.69159         14.27938   0.000000  95.72514  78.15684  61.55114  78.15684  61.55953  77.22633  95.73353  77.22633
2         78.65092  76.76107         14.36406   0.000000  95.73353  77.22633  61.55953  77.22633  61.56845  76.29581  95.74245  76.29581
2         78.66012  75.83054         14.44874   0.000000  95.74245  76.29581  61.56845  76.29581  61.57792  75.36527  95.75192  75.36527
2         78.66985  74.90000         14.53341   0.000000  95.75192  75.36527  61.57792  75.36527  61.58792  74.43473  95.76192  74.43473
2         78.68013  73.96945         14.61809   0.000000  95.76192  74.43473  61.58792  74.43473  61.59846  73.50417  95.77246  73.50417
2         78.69094  73.03889         14.70277   0.000000  95.77246  73.50417  61.59846  73.50417  61.60955  72.57360  95.78355  72.57360
2         78.70229  72.10831         14.78745   0.000000  95.78355  72.57360  61.60955  72.57360  61.62117  71.64302  95.79517  71.64302
2         78.71418  71.17773         14.87212   0.000000  95.79517  71.64302  61.62117  71.64302  61.63333  70.71243  95.80733  70.71243
2         78.72661  70.24713         14.95680   0.000000  95.80733  70.71243  61.63333  70.71243  61.64602  69.78183  95.82002  69.78183
2         78.73957  69.31653         15.04148   0.000000  95.82002  69.78183  61.64602  69.78183  61.65926  68.85122  95.83326  68.85122
2         78.75308  68.38591         15.12615   0.000000  95.83326  68.85122  61.65926  68.85122  61.67303  67.92060  95.84703  67.92060
2         78.76712  67.45528         15.21083   0.000000  95.84703  67.92060  61.67303  67.92060  61.68735  66.98996  95.86135  66.98996
2         78.78171  66.52464         15.29551   0.000000  95.86135  66.98996  61.68735  66.98996  61.70220  66.05931  95.87620  66.05931
2         78.79683  65.59399         15.38018   0.000000  95.87620  66.05931  61.70220  66.05931  61.71759  65.12866  95.89159  65.12866
2         78.81248  64.66332         15.46486   0.000000  95.89159  65.12866  61.71759  65.12866  61.73351  64.19799  95.90751  64.19799
2         78.82868  63.73265         15.54954   0.000000  95.90751  64.19799  61.73351  64.19799  61.74998  63.26731  95.92398  63.26731
2         78.84541  62.80196         15.63421   0.000000  95.92398  63.26731  61.74998  63.26731  61.76698  62.33662  95.94098  62.33662
2         78.86269  61.87127         15.71889   0.000000  95.94098  62.33662  61.76698  62.33662  61.78452  61.40591  95.95852  61.40591
2         78.88050  60.94056         15.80357   0.000000  95.95852  61.40591  61.78452  61.40591  61.80260  60.47520  95.97660  60.47520
2         78.89884  60.00984         15.88824   0.000000  95.97660  60.47520  61.80260  60.47520  61.82122  59.54448  95.99522  59.54448
2         78.91773  59.07911         15.97292   0.000000  95.99522  59.54448  61.82122  59.54448  61.84037  58.61374  96.01437  58.61374
2         78.93715  58.14837         16.05760   0.000000  96.01437  58.61374  61.84037  58.61374  61.86006  57.68299  96.03406  57.68299
2         78.95711  57.21761         16.14228   0.000000  96.03406  57.68299  61.86006  57.68299  61.88029  56.75223  96.05429  56.75223
2         78.97760  56.28685         16.22695   0.000000  96.05429  56.75223  61.88029  56.75223  61.90105  55.82146  96.07505  55.82146
2         78.99864  55.35608         16.31163   0.000000  96.07505  55.82146  61.90105  55.82146  61.92235  54.89068  96.09635  54.89068
2         79.02021  54.42529         16.39631   0.000000  96.09635  54.89068  61.92235  54.89068  61.94419  53.95989  96.11819  53.95989
2         79.04231  53.49449         16.48098   0.000000  96.11819  53.95989  61.94419  53.95989  61.96657  53.02909  96.14057  53.02909
2         79.06496  52.56368         16.56566   0.000000  96.14057  53.02909  61.96657  53.02909  61.98948  52.09827  96.16348  52.09827
2         79.08814  51.63286         16.65034   0.000000  96.16348  52.09827  61.98948  52.09827  62.01293  51.16745  96.18693  51.16745
2         79.11185  50.70203         16.73501   0.000000  96.18693  51.16745  62.01293  51.16745  62.03691  50.23661  96.21091  50.23661
2         79.13610  49.77119         16.81969   0.000000  96.21091  50.23661  62.03691  50.23661  62.06143  49.30576  96.23543  49.30576
2         79.16089  48.84033         16.90437   0.000000  96.23543  49.30576  62.06143  49.30576  62.08649  48.37490  96.26049  48.37490
2         79.18622  47.90947         16.98904   0.000000  96.26049  48.37490  62.08649  48.37490  62.11208  47.44403  96.28608  47.44403
2         79.21208  46.97859         17.07372   0.000000  96.28608  47.44403  62.11208  47.44403  62.13821  46.51315  96.31221  46.51315
2         79.23848  46.04771         17.15840   0.000000  96.31221  46.51315  62.13821  46.51315  62.16488  45.58226  96.33888  45.58226
2         79.26541  45.11681         17.24307   0.000000  96.33888  45.58226  62.16488  45.58226  62.19208  44.65135  96.36608  44.65135
2         79.29288  44.18590         17.32775   0.000000  96.36608  44.65135  62.19208  44.65135  62.21982  43.72044  96.39382  43.72044
2         79.32089  43.25498         17.41243   0.000000  96.39382  43.72044  62.21982  43.72044  62.24809  42.78951  96.42209  42.78951
2         79.34943  42.32404         17.49711   0.000000  96.42209  42.78951  62.24809  42.78951  62.27690  41.85857  96.45090  41.85857
2         79.37850  41.39310         17.58178   0.000000  96.45090  41.85857  62.27690  41.85857  62.30624  40.92762  96.48024  40.92762
2         79.40812  40.46215         17.66646   0.000000  96.48024  40.92762  62.30624  40.92762  62.33612  39.99666  96.51012  39.99666
2         79.43826  39.53118         17.75114   0.000000  96.51012  39.99666  62.33612  39.99666  62.36654  39.06569  96.54054  39.06569
2         79.46894  38.60020         17.83581   0.000000  96.54054  39.06569  62.36654  39.06569  62.39749  38.13471  96.57149  38.13471
2         79.50016  37.66921         17.92049   0.000000  96.57149  38.13471  62.39749  38.13471  62.42897  37.20372  96.60297  37.20372
2         79.53191  36.73821         18.00517   0.000000  96.60297  37.20372  62.42897  37.20372  62.46099  36.27271  96.63499  36.27271
2         79.56420  35.80720         18.08984   0.000000  96.63499  36.27271  62.46099  36.27271  62.49354  35.34169  96.66754  35.34169
2         79.59702  34.87618         18.17452   0.000000  96.66754  35.34169  62.49354  35.34169  62.52663  34.41067  96.70063  34.41067
2         79.63038  33.94515         18.25920   0.000000  96.70063  34.41067  62.52663  34.41067  62.56026  33.47963  96.73426  33.47963
2         79.66427  33.01410         18.34387   0.000000  96.73426  33.47963  62.56026  33.47963  62.59442  32.54858  96.76842  32.54858
2         79.69870  32.08305         18.42855   0.000000  96.76842  32.54858  62.59442  32.54858  62.62911  31.61752  96.80311  31.61752
2         79.73366  31.15198         18.51323   0.000000  96.80311  31.61752  62.62911  31.61752  62.66434  30.68644  96.83834  30.68644
2         79.76915  30.22090         18.59790   0.000000  96.83834  30.68644  62.66434  30.68644  62.70010  29.75536  96.87410  29.75536
2         79.80518  29.28981         18.68258   0.000000  96.87410  29.75536  62.70010  29.75536  62.73639  28.82427  96.91039  28.82427
2         79.84174  28.35871         18.76726   0.000000  96.91039  28.82427  62.73639  28.82427  62.77322  27.89316  96.94722  27.89316
2         79.87884  27.42760         18.85194   0.000000  96.94722  27.89316  62.77322  27.89316  62.81059  26.96204  96.98459  26.96204
2         79.91647  26.49648         18.93661   0.000000  96.98459  26.96204  62.81059  26.96204  62.84849  26.03091  97.02249  26.03091
2         79.95463  25.56535         19.02129   0.000000  97.02249  26.03091  62.84849  26.03091  62.88692  25.09977  97.06092  25.09977
2         79.99333  24.63420         19.10597   0.000000  97.06092  25.09977  62.88692  25.09977  62.92588  24.16862  97.09988  24.16862
2         80.03256  23.70304         19.19064   0.000000  97.09988  24.16862  62.92588  24.16862  62.96538  23.23746  97.13938  23.23746
2         80.07233  22.77188         19.27532   0.000000  97.13938  23.23746  62.96538  23.23746  63.00541  22.30629  97.17941  22.30629
2         80.11263  21.84070         19.36000   0.000000  97.17941  22.30629  63.00541  22.30629  63.04598  21.37510  97.21998  21.37510
2         80.15346  20.90951         19.44467   0.000000  97.21998  21.37510  63.04598  21.37510  63.08708  20.44391  97.26108  20.44391
2         80.19483  19.97830         19.52935   0.000000  97.26108  20.44391  63.08708  20.44391  63.12871  19.51270  97.30271  19.51270
2         80.23672  19.04709         19.61403   0.000000  97.30271  19.51270  63.12871  19.51270  63.17087  18.58148  97.34487  18.58148
2         80.27915  18.11587         19.69870   0.000000  97.34487  18.58148  63.17087  18.58148  63.21357  17.65025  97.38757  17.65025
2         80.32212  17.18463         19.78338   0.000000  97.38757  17.65025  63.21357  17.65025  63.25680  16.71901  97.43080  16.71901
2         80.36562  16.25339         19.86806   0.000000  97.43080  16.71901  63.25680  16.71901  63.30056  15.78776  97.47456  15.78776
2         80.40965  15.32213         19.95273   0.000000  97.47456  15.78776  63.30056  15.78776  63.34486  14.85650  97.51886  14.85650
2         80.45421  14.39086         20.03741   0.000000  97.51886  14.85650  63.34486  14.85650  63.38969  13.92522  97.56369  13.92522
2         80.49930  13.45958         20.12209   0.000000  97.56369  13.92522  63.38969  13.92522  63.43505  12.99394  97.60905  12.99394
2         80.54493  12.52829         20.20677   0.000000  97.60905  12.99394  63.43505  12.99394  63.48094  12.06264  97.65494  12.06264
2         80.59109  11.59699         20.29144   0.000000  97.65494  12.06264  63.48094  12.06264  63.52737  11.13133  97.70137  11.13133
2         80.63778  10.66567         20.37612   0.000000  97.70137  11.13133  63.52737  11.13133  63.57433  10.20001  97.74833  10.20001
2         80.68500   9.73435         20.46080   0.000000  97.74833  10.20001  63.57433  10.20001  63.62182   9.26868  97.79582   9.26868
2         80.73276   8.80301         20.54547   0.000000  97.79582   9.26868  63.62182   9.26868  63.66984   8.33734  97.84384   8.33734
2         80.78105   7.87167         20.63015   0.000000  97.84384   8.33734  63.66984   8.33734  63.71839   7.40599  97.89239   7.40599
2         80.82987   6.94031         20.71483   0.000000  97.89239   7.40599  63.71839   7.40599  63.76748   6.47462  97.94148   6.47462
2         80.87922   6.00894         20.79950   0.000000  97.94148   6.47462  63.76748   6.47462  63.81709   5.54325  97.99109   5.54325
2         80.92910   5.07756         20.88418   0.000000  97.99109   5.54325  63.81709   5.54325  63.86724   4.61186  98.04124   4.61186
2         80.97952   4.14616         20.96886   0.000000  98.04124   4.61186  63.86724   4.61186  63.91792   3.68046  98.09192   3.68046
2         81.03046   3.21476         21.05353   0.000000  98.09192   3.68046  63.91792   3.68046  63.96913   2.74905  98.14313   2.74905
2         81.08194   2.28335         21.13821   0.000000  98.14313   2.74905  63.96913   2.74905  64.02088   1.81763  98.19488   1.81763
2         81.13395   1.35192         21.22289   0.000000  98.19488   1.81763  64.02088   1.81763  64.07315   0.88620  98.24715   0.88620
2         81.18648   0.42048         21.30756   0.000000  98.24715   0.88620  64.07315   0.88620  64.12595  -0.04524  98.29995  -0.04524
2         81.23955  -0.51096         21.39224   0.000000  98.29995  -0.04524  64.12595  -0.04524  64.17929  -0.97669  98.35329  -0.97669
3         81.71246 127.88186         19.36000   0.000000  98.98392 128.11371  64.48292 128.11371  64.44115 127.65001  98.94215 127.65001
3         81.67097 127.41816         19.44467   0.000000  98.94215 127.65001  64.44115 127.65001  64.39994 127.18631  98.90094 127.18631
3         81.63005 126.95445         19.52935   0.000000  98.90094 127.18631  64.39994 127.18631  64.35930 126.72260  98.86030 126.72260
3         81.58969 126.49075         19.61403   0.000000  98.86030 126.72260  64.35930 126.72260  64.31922 126.25890  98.82022 126.25890
3         81.54989 126.02705         19.69870   0.000000  98.82022 126.25890  64.31922 126.25890  64.27970 125.79520  98.78070 125.79520
3         81.51066 125.56335         19.78338   0.000000  98.78070 125.79520  64.27970 125.79520  64.24075 125.33149  98.74175 125.33149
3         81.47199 125.09964         19.86806   0.000000  98.74175 125.33149  64.24075 125.33149  64.20237 124.86779  98.70337 124.86779
3         81.43389 124.63594         19.95273   0.000000  98.70337 124.86779  64.20237 124.86779  64.16455 124.40409  98.66555 124.40409
3         81.39635 124.17224         20.03741   0.000000  98.66555 124.40409  64.16455 124.40409  64.12729 123.94039  98.62829 123.94039
3         81.35937 123.70854         20.12209   0.000000  98.62829 123.94039  64.12729 123.94039  64.09060 123.47668  98.59160 123.47668
3         81.32296 123.24483         20.20677   0.000000  98.59160 123.47668  64.09060 123.47668  64.05447 123.01298  98.55547 123.01298
3         81.28712 122.78113         20.29144   0.000000  98.55547 123.01298  64.05447 123.01298  64.01891 122.54928  98.51991 122.54928
3         81.25184 122.31743         20.37612   0.000000  98.51991 122.54928  64.01891 122.54928  63.98391 122.08558  98.48491 122.08558
3         81.21712 121.85372         20.46080   0.000000  98.48491 122.08558  63.98391 122.08558  63.94947 121.62187  98.45047 121.62187
3         81.18297 121.39002         20.54547   0.000000  98.45047 121.62187  63.94947 121.62187  63.91560 121.15817  98.41660 121.15817
3         81.14938 120.92632         20.63015   0.000000  98.41660 121.15817  63.91560 121.15817  63.88230 120.69447  98.38330 120.69447
3         81.11636 120.46262         20.71483   0.000000  98.38330 120.69447  63.88230 120.69447  63.84956 120.23076  98.35056 120.23076
3         81.08390 119.99891         20.79950   0.000000  98.35056 120.23076  63.84956 120.23076  63.81738 119.76706  98.31838 119.76706
3         81.05201 119.53521         20.88418   0.000000  98.31838 119.76706  63.81738 119.76706  63.78577 119.30336  98.28677 119.30336
3         81.02068 119.07151         20.96886   0.000000  98.28677 119.30336  63.78577 119.30336  63.75472 118.83966  98.25572 118.83966
3         80.98991 118.60780         21.05353   0.000000  98.25572 118.83966  63.75472 118.83966  63.72424 118.37595  98.22524 118.37595
3         80.95971 118.14410         21.13821   0.000000  98.22524 118.37595  63.72424 118.37595  63.69432 117.91225  98.19532 117.91225
3         80.93008 117.68040         21.22289   0.000000  98.19532 117.91225  63.69432 117.91225  63.66497 117.44855  98.16597 117.44855
3         80.90101 117.21670         21.30756   0.000000  98.16597 117.44855  63.66497 117.44855  63.63618 116.98484  98.13718 116.98484
3         80.87250 116.75299         21.39224   0.000000  98.13718 116.98484  63.63618 116.98484  63.60796 116.52114  98.10896 116.52114
3         80.84456 116.28929         21.47692   0.000000  98.10896 116.52114  63.60796 116.52114  63.58030 116.05744  98.08130 116.05744
3         80.81718 115.82559         21.56160   0.000000  98.08130 116.05744  63.58030 116.05744  63.55320 115.59374  98.05420 115.59374
3         80.79037 115.36188         21.64627   0.000000  98.05420 115.59374  63.55320 115.59374  63.52667 115.13003  98.02767 115.13003
3         80.76412 114.89818         21.73095   0.000000  98.02767 115.13003  63.52667 115.13003  63.50071 114.66633  98.00171 114.66633
3         80.73844 114.43448         21.81563   0.000000  98.00171 114.66633  63.50071 114.66633  63.47531 114.20263  97.97631 114.20263
3         80.71332 113.97078         21.90030   0.000000  97.97631 114.20263  63.47531 114.20263  63.45047 113.73892  97.95147 113.73892
3         80.68876 113.50707         21.98498   0.000000  97.95147 113.73892  63.45047 113.73892  63.42620 113.27522  97.92720 113.27522
3         80.66477 113.04337         22.06966   0.000000  97.92720 113.27522  63.42620 113.27522  63.40249 112.81152  97.90349 112.81152
1         42.53758 127.90483         19.36000   0.000000  58.93484 128.36984  26.18484 128.36984  26.14049 127.43983  58.89049 127.43983
1         42.49356 126.97483         19.52935   0.000000  58.89049 127.43983  26.14049 127.43983  26.09680 126.50982  58.84680 126.50982
1         42.45020 126.04482         19.69870   0.000000  58.84680 126.50982  26.09680 126.50982  26.05377 125.57982  58.80377 125.57982
1         42.40751 125.11481         19.86806   0.000000  58.80377 125.57982  26.05377 125.57982  26.01140 124.64981  58.76140 124.64981
1         42.36547 124.18481         20.03741   0.000000  58.76140 124.64981  26.01140 124.64981  25.96970 123.71980  58.71970 123.71980
1         42.32409 123.25480         20.20677   0.000000  58.71970 123.71980  25.96970 123.71980  25.92865 122.78980  58.67865 122.78980
1         42.28337 122.32479         20.37612   0.000000  58.67865 122.78980  25.92865 122.78980  25.88826 121.85979  58.63826 121.85979
1         42.24331 121.39479         20.54547   0.000000  58.63826 121.85979  25.88826 121.85979  25.84853 120.92979  58.59853 120.92979
1         42.20391 120.46478         20.71483   0.000000  58.59853 120.92979  25.84853 120.92979  25.80946 119.99978  58.55946 119.99978
1         42.16518 119.53478         20.88418   0.000000  58.55946 119.99978  25.80946 119.99978  25.77105 119.06977  58.52105 119.06977
1         42.12710 118.60477         21.05353   0.000000  58.52105 119.06977  25.77105 119.06977  25.73331 118.13977  58.48331 118.13977
1         42.08968 117.67476         21.22289   0.000000  58.48331 118.13977  25.73331 118.13977  25.69622 117.20976  58.44622 117.20976
1         42.05292 116.74476         21.39224   0.000000  58.44622 117.20976  25.69622 117.20976  25.65979 116.27975  58.40979 116.27975
1         42.01682 115.81475         21.56160   0.000000  58.40979 116.27975  25.65979 116.27975  25.62402 115.34975  58.37402 115.34975
1         41.98139 114.88475         21.73095   0.000000  58.37402 115.34975  25.62402 115.34975  25.58891 114.41974  58.33891 114.41974
1         41.94661 113.95474         21.90030   0.000000  58.33891 114.41974  25.58891 114.41974  25.55447 113.48974  58.30447 113.48974
1         41.91249 113.02473         22.06966   0.000000  58.30447 113.48974  25.55447 113.48974  25.52068 112.55973  58.27068 112.55973
1         41.87903 112.09473         22.23901   0.000000  58.27068 112.55973  25.52068 112.55973  25.48755 111.62972  58.23755 111.62972
1         41.84623 111.16472         22.40836   0.000000  58.23755 111.62972  25.48755 111.62972  25.45508 110.69972  58.20508 110.69972
1         41.81410 110.23472         22.57772   0.000000  58.20508 110.69972  25.45508 110.69972  25.42327 109.76971  58.17327 109.76971
