\wavsamp version 5.1 (Wed Apr 20 08:45:04 PDT 2005)
\processing time 13:47:36 PST 11/02/2007
\character channelID = 1
| order |x_center |y_center |   wavelength   |  angle   |   x0    |   y0    |   x1    |   y1    |   x2    |   y2    |   x3    |   y3    |
| int   |  real   |  real   |    real        |   real   |  real   |  real   |  real   |  real   |  real   |  real   |  real   |  real   |
      20 120.47475 127.95780          9.86350   0.592061 123.27955 128.45457 117.65485 128.39652 117.66996 127.46093 123.29466 127.51912
      20 120.48989 127.02185          9.87109   0.593500 123.29466 127.51912 117.66996 127.46093 117.68514 126.52447 123.30983 126.58281
      20 120.50510 126.08503          9.87869   0.594940 123.30983 126.58281 117.68514 126.52447 117.70039 125.58715 123.32508 125.64562
      20 120.52039 125.14734          9.88629   0.596383 123.32508 125.64562 117.70039 125.58715 117.71571 124.64896 123.34040 124.70758
      20 120.53574 124.20879          9.89390   0.597828 123.34040 124.70758 117.71571 124.64896 117.73110 123.70990 123.35579 123.76866
      20 120.55117 123.26937          9.90151   0.599276 123.35579 123.76866 117.73110 123.70990 117.74656 122.76997 123.37125 122.82888
      20 120.56667 122.32908          9.90913   0.600725 123.37125 122.82888 117.74656 122.76997 117.76210 121.82918 123.38679 121.88822
      20 120.58224 121.38792          9.91675   0.602176 123.38679 121.88822 117.76210 121.82918 117.77770 120.88751 123.40239 120.94670
      20 120.59788 120.44589          9.92439   0.603629 123.40239 120.94670 117.77770 120.88751 117.79338 119.94497 123.41806 120.00430
      20 120.61359 119.50299          9.93202   0.605085 123.41806 120.00430 117.79338 119.94497 117.80912 119.00156 123.43381 119.06104
      20 120.62937 118.55921          9.93967   0.606542 123.43381 119.06104 117.80912 119.00156 117.82494 118.05728 123.44963 118.11690
      20 120.64522 117.61456          9.94731   0.608002 123.44963 118.11690 117.82494 118.05728 117.84084 117.11212 123.46552 117.17188
      20 120.66115 116.66904          9.95497   0.609463 123.46552 117.17188 117.84084 117.11212 117.85680 116.16609 123.48148 116.22600
      20 120.67715 115.72264          9.96263   0.610927 123.48148 116.22600 117.85680 116.16609 117.87284 115.21918 123.49752 115.27923
      20 120.69322 114.77537          9.97030   0.612393 123.49752 115.27923 117.87284 115.21918 117.88895 114.27140 123.51362 114.33159
      20 120.70937 113.82722          9.97797   0.613861 123.51362 114.33159 117.88895 114.27140 117.90513 113.32274 123.52980 113.38308
      20 120.72558 112.87819          9.98565   0.615331 123.52980 113.38308 117.90513 113.32274 117.92138 112.37320 123.54605 112.43368
      20 120.74187 111.92828          9.99333   0.616803 123.54605 112.43368 117.92138 112.37320 117.93771 111.42278 123.56238 111.48341
      20 120.75823 110.97750         10.00102   0.618277 123.56238 111.48341 117.93771 111.42278 117.95411 110.47148 123.57878 110.53225
      20 120.77467 110.02583         10.00872   0.619754 123.57878 110.53225 117.95411 110.47148 117.97058 109.51930 123.59525 109.58022
      20 120.79118 109.07328         10.01642   0.621232 123.59525 109.58022 117.97058 109.51930 117.98712 108.56624 123.61179 108.62730
      20 120.80776 108.11985         10.02413   0.622713 123.61179 108.62730 117.98712 108.56624 118.00374 107.61229 123.62841 107.67350
      20 120.82441 107.16554         10.03184   0.624196 123.62841 107.67350 118.00374 107.61229 118.02044 106.65746 123.64510 106.71881
      20 120.84114 106.21034         10.03956   0.625681 123.64510 106.71881 118.02044 106.65746 118.03720 105.70175 123.66187 105.76325
      20 120.85795 105.25425         10.04729   0.627168 123.66187 105.76325 118.03720 105.70175 118.05404 104.74515 123.67870 104.80679
      20 120.87482 104.29728         10.05502   0.628657 123.67870 104.80679 118.05404 104.74515 118.07096 103.78766 123.69562 103.84945
      20 120.89177 103.33942         10.06276   0.630148 123.69562 103.84945 118.07096 103.78766 118.08795 102.82929 123.71260 102.89122
      20 120.90880 102.38068         10.07050   0.631642 123.71260 102.89122 118.08795 102.82929 118.10501 101.87002 123.72967 101.93211
      20 120.92590 101.42105         10.07825   0.633137 123.72967 101.93211 118.10501 101.87002 118.12215 100.90987 123.74680 100.97210
      20 120.94307 100.46052         10.08600   0.634635 123.74680 100.97210 118.12215 100.90987 118.13936  99.94883 123.76401 100.01121
      20 120.96032  99.49911         10.09377   0.636135 123.76401 100.01121 118.13936  99.94883 118.15664  98.98690 123.78130  99.04942
      20 120.97764  98.53680         10.10153   0.637637 123.78130  99.04942 118.15664  98.98690 118.17401  98.02407 123.79866  98.08674
      20 120.99504  97.57360         10.10931   0.639141 123.79866  98.08674 118.17401  98.02407 118.19144  97.06035 123.81609  97.12317
      20 121.01251  96.60951         10.11709   0.640647 123.81609  97.12317 118.19144  97.06035 118.20895  96.09574 123.83360  96.15871
      20 121.03006  95.64453         10.12487   0.642156 123.83360  96.15871 118.20895  96.09574 118.22654  95.13023 123.85119  95.19335
      20 121.04769  94.67865         10.13266   0.643667 123.85119  95.19335 118.22654  95.13023 118.24420  94.16383 123.86885  94.22709
      20 121.06539  93.71187         10.14046   0.645180 123.86885  94.22709 118.24420  94.16383 118.26194  93.19653 123.88658  93.25994
      20 121.08316  92.74419         10.14826   0.646695 123.88658  93.25994 118.26194  93.19653 118.27976  92.22833 123.90440  92.29189
      20 121.10101  91.77562         10.15607   0.648212 123.90440  92.29189 118.27976  92.22833 118.29765  91.25924 123.92229  91.32295
      20 121.11894  90.80615         10.16389   0.649731 123.92229  91.32295 118.29765  91.25924 118.31561  90.28924 123.94025  90.35310
      20 121.13694  89.83578         10.17171   0.651253 123.94025  90.35310 118.31561  90.28924 118.33366  89.31834 123.95829  89.38235
      20 121.15502  88.86451         10.17954   0.652777 123.95829  89.38235 118.33366  89.31834 118.35177  88.34655 123.97641  88.41071
      20 121.17318  87.89233         10.18737   0.654303 123.97641  88.41071 118.35177  88.34655 118.36997  87.37385 123.99460  87.43816
      20 121.19141  86.91926         10.19521   0.655831 123.99460  87.43816 118.36997  87.37385 118.38824  86.40024 124.01287  86.46470
      20 121.20972  85.94528         10.20306   0.657361 124.01287  86.46470 118.38824  86.40024 118.40659  85.42574 124.03122  85.49035
      20 121.22811  84.97039         10.21091   0.658894 124.03122  85.49035 118.40659  85.42574 118.42502  84.45032 124.04965  84.51508
      20 121.24658  83.99460         10.21876   0.660429 124.04965  84.51508 118.42502  84.45032 118.44352  83.47401 124.06815  83.53892
      20 121.26512  83.01791         10.22663   0.661966 124.06815  83.53892 118.44352  83.47401 118.46210  82.49678 124.08673  82.56184
      20 121.28374  82.04030         10.23450   0.663505 124.08673  82.56184 118.46210  82.49678 118.48076  81.51865 124.10538  81.58386
      20 121.30243  81.06179         10.24237   0.665047 124.10538  81.58386 118.48076  81.51865 118.49950  80.53960 124.12412  80.60497
      20 121.32121  80.08237         10.25026   0.666591 124.12412  80.60497 118.49950  80.53960 118.51831  79.55965 124.14293  79.62517
      20 121.34006  79.10204         10.25814   0.668136 124.14293  79.62517 118.51831  79.55965 118.53721  78.57879 124.16182  78.64446
      20 121.35899  78.12079         10.26604   0.669685 124.16182  78.64446 118.53721  78.57879 118.55618  77.59702 124.18079  77.66284
      20 121.37800  77.13864         10.27394   0.671235 124.18079  77.66284 118.55618  77.59702 118.57522  76.61433 124.19984  76.68030
      20 121.39709  76.15557         10.28184   0.672788 124.19984  76.68030 118.57522  76.61433 118.59435  75.63073 124.21896  75.69685
      20 121.41625  75.17159         10.28976   0.674343 124.21896  75.69685 118.59435  75.63073 118.61356  74.64621 124.23817  74.71249
      20 121.43550  74.18670         10.29767   0.675900 124.23817  74.71249 118.61356  74.64621 118.63284  73.66078 124.25745  73.72721
      20 121.45482  73.20088         10.30560   0.677459 124.25745  73.72721 118.63284  73.66078 118.65221  72.67444 124.27681  72.74102
      20 121.47422  72.21415         10.31353   0.679021 124.27681  72.74102 118.65221  72.67444 118.67165  71.68717 124.29625  71.75391
      20 121.49370  71.22651         10.32146   0.680585 124.29625  71.75391 118.67165  71.68717 118.69117  70.69899 124.31577  70.76588
      20 121.51326  70.23794         10.32941   0.682151 124.31577  70.76588 118.69117  70.69899 118.71077  69.70989 124.33537  69.77693
      20 121.53290  69.24846         10.33736   0.683720 124.33537  69.77693 118.71077  69.70989 118.73045  68.71987 124.35505  68.78707
      20 121.55262  68.25805         10.34531   0.685290 124.35505  68.78707 118.73045  68.71987 118.75021  67.72892 124.37481  67.79628
      20 121.57242  67.26673         10.35327   0.686863 124.37481  67.79628 118.75021  67.72892 118.77006  66.73706 124.39465  66.80457
      20 121.59230  66.27448         10.36124   0.688439 124.39465  66.80457 118.77006  66.73706 118.78998  65.74427 124.41457  65.81193
      20 121.61227  65.28130         10.36921   0.690016 124.41457  65.81193 118.78998  65.74427 118.80998  64.75056 124.43457  64.81837
      20 121.63231  64.28721         10.37719   0.691596 124.43457  64.81837 118.80998  64.75056 118.83006  63.75592 124.45465  63.82389
      20 121.65243  63.29218         10.38518   0.693178 124.45465  63.82389 118.83006  63.75592 118.85022  62.76036 124.47481  62.82848
      20 121.67263  62.29623         10.39317   0.694763 124.47481  62.82848 118.85022  62.76036 118.87046  61.76387 124.49505  61.83215
      20 121.69291  61.29936         10.40117   0.696349 124.49505  61.83215 118.87046  61.76387 118.89079  60.76645 124.51537  60.83489
      20 121.71327  60.30155         10.40917   0.697938 124.51537  60.83489 118.89079  60.76645 118.91119  59.76810 124.53578  59.83670
      20 121.73372  59.30282         10.41718   0.699530 124.53578  59.83670 118.91119  59.76810 118.93168  58.76882 124.55626  58.83758
      20 121.75424  58.30316         10.42520   0.701123 124.55626  58.83758 118.93168  58.76882 118.95225  57.76862 124.57683  57.83753
      20 121.77485  57.30256         10.43322   0.702719 124.57683  57.83753 118.95225  57.76862 118.97290  56.76748 124.59747  56.83654
      20 121.79554  56.30104         10.44125   0.704318 124.59747  56.83654 118.97290  56.76748 118.99363  55.76541 124.61820  55.83463
      20 121.81631  55.29858         10.44928   0.705918 124.61820  55.83463 118.99363  55.76541 119.01444  54.76240 124.63901  54.83178
      20 121.83716  54.29518         10.45732   0.707521 124.63901  54.83178 119.01444  54.76240 119.03533  53.75846 124.65990  53.82800
      20 121.85810  53.29085         10.46537   0.709127 124.65990  53.82800 119.03533  53.75846 119.05631  52.75359 124.68088  52.82328
      20 121.87912  52.28559         10.47342   0.710734 124.68088  52.82328 119.05631  52.75359 119.07737  51.74777 124.70194  51.81763
      20 121.90022  51.27939         10.48148   0.712344 124.70194  51.81763 119.07737  51.74777 119.09851  50.74102 124.72308  50.81104
      20 121.92140  50.27225         10.48955   0.713956 124.72308  50.81104 119.09851  50.74102 119.11974  49.73334 124.74430  49.80351
      20 121.94266  49.26417         10.49762   0.715571 124.74430  49.80351 119.11974  49.73334 119.14104  48.72471 124.76561  48.79504
      20 121.96401  48.25515         10.50570   0.717188 124.76561  48.79504 119.14104  48.72471 119.16244  47.71514 124.78699  47.78563
      20 121.98544  47.24519         10.51378   0.718807 124.78699  47.78563 119.16244  47.71514 119.18391  46.70463 124.80847  46.77528
      20 122.00696  46.23429         10.52188   0.720429 124.80847  46.77528 119.18391  46.70463 119.20547  45.69318 124.83002  45.76398
      20 122.02855  45.22244         10.52997   0.722053 124.83002  45.76398 119.20547  45.69318 119.22711  44.68078 124.85166  44.75175
      20 122.05024  44.20966         10.53808   0.723679 124.85166  44.75175 119.22711  44.68078 119.24883  43.66744 124.87338  43.73857
      20 122.07200  43.19592         10.54618   0.725308 124.87338  43.73857 119.24883  43.66744 119.27064  42.65316 124.89519  42.72444
      20 122.09385  42.18125         10.55430   0.726939 124.89519  42.72444 119.27064  42.65316 119.29253  41.63793 124.91708  41.70937
      20 122.11578  41.16562         10.56242   0.728573 124.91708  41.70937 119.29253  41.63793 119.31451  40.62175 124.93905  40.69335
      20 122.13780  40.14905         10.57055   0.730209 124.93905  40.69335 119.31451  40.62175 119.33657  39.60462 124.96111  39.67639
      20 122.15990  39.13153         10.57868   0.731847 124.96111  39.67639 119.33657  39.60462 119.35871  38.58655 124.98325  38.65847
      20 122.18209  38.11306         10.58683   0.733488 124.98325  38.65847 119.35871  38.58655 119.38094  37.56752 125.00548  37.63961
      20 122.20436  37.09364         10.59497   0.735131 125.00548  37.63961 119.38094  37.56752 119.40326  36.54754 125.02780  36.61979
      20 122.22672  36.07326         10.60313   0.736776 125.02780  36.61979 119.40326  36.54754 119.42566  35.52661 125.05019  35.59902
      20 122.24916  35.05194         10.61128   0.738424 125.05019  35.59902 119.42566  35.52661 119.44814  34.50473 125.07268  34.57730
      20 122.27169  34.02966         10.61945   0.740074 125.07268  34.57730 119.44814  34.50473 119.47072  33.48189 125.09525  33.55463
      20 122.29430  33.00642         10.62762   0.741727 125.09525  33.55463 119.47072  33.48189 119.49337  32.45810 125.11790  32.53100
      20 122.31700  31.98223         10.63580   0.743382 125.11790  32.53100 119.49337  32.45810 119.51611  31.43335 125.14064  31.50641
      20 122.33978  30.95709         10.64398   0.745039 125.14064  31.50641 119.51611  31.43335 119.53894  30.40764 125.16347  30.48087
      20 122.36265  29.93099         10.65218   0.746699 125.16347  30.48087 119.53894  30.40764 119.56186  29.38098 125.18638  29.45437
      20 122.38561  28.90392         10.66037   0.748362 125.18638  29.45437 119.56186  29.38098 119.58486  28.35336 125.20938  28.42691
      20 122.40865  27.87590         10.66858   0.750026 125.20938  28.42691 119.58486  28.35336 119.60794  27.32477 125.23246  27.39849
      20 122.43178  26.84692         10.67679   0.751694 125.23246  27.39849 119.60794  27.32477 119.63112  26.29523 125.25563  26.36910
      20 122.45499  25.81697         10.68500   0.753363 125.25563  26.36910 119.63112  26.29523 119.65438  25.26472 125.27889  25.33876
      20 122.47830  24.78607         10.69322   0.755035 125.27889  25.33876 119.65438  25.26472 119.67772  24.23325 125.30223  24.30746
      20 122.50169  23.75420         10.70145   0.756710 125.30223  24.30746 119.67772  24.23325 119.70116  23.20082 125.32567  23.27519
      19 113.40719 127.89107         10.37719   0.800553 116.21407 128.39817 110.58962 128.31966 110.60034 127.38385 116.22479 127.46252
      19 113.41795 126.95490         10.38518   0.802212 116.22479 127.46252 110.60034 127.38385 110.61112 126.44716 116.23557 126.52600
      19 113.42877 126.01786         10.39317   0.803872 116.23557 126.52600 110.61112 126.44716 110.62198 125.50961 116.24642 125.58861
      19 113.43965 125.07996         10.40117   0.805534 116.24642 125.58861 110.62198 125.50961 110.63290 124.57119 116.25734 124.65036
      19 113.45061 124.14119         10.40917   0.807198 116.25734 124.65036 110.63290 124.57119 110.64389 123.63191 116.26833 123.71123
      19 113.46163 123.20155         10.41718   0.808864 116.26833 123.71123 110.64389 123.63191 110.65495 122.69175 116.27939 122.77124
      19 113.47273 122.26104         10.42520   0.810532 116.27939 122.77124 110.65495 122.69175 110.66608 121.75072 116.29051 121.83037
      19 113.48389 121.31966         10.43322   0.812202 116.29051 121.83037 110.66608 121.75072 110.67727 120.80882 116.30171 120.88864
      19 113.49512 120.37741         10.44125   0.813873 116.30171 120.88864 110.67727 120.80882 110.68854 119.86605 116.31297 119.94603
      19 113.50642 119.43428         10.44928   0.815547 116.31297 119.94603 110.68854 119.86605 110.69987 118.92241 116.32430 119.00255
      19 113.51778 118.49028         10.45732   0.817222 116.32430 119.00255 110.69987 118.92241 110.71128 117.97789 116.33571 118.05820
      19 113.52922 117.54541         10.46537   0.818900 116.33571 118.05820 110.71128 117.97789 110.72275 117.03249 116.34718 117.11297
      19 113.54073 116.59966         10.47342   0.820579 116.34718 117.11297 110.72275 117.03249 110.73429 116.08623 116.35872 116.16687
      19 113.55230 115.65303         10.48148   0.822260 116.35872 116.16687 110.73429 116.08623 110.74591 115.13908 116.37033 115.21988
      19 113.56395 114.70553         10.48955   0.823943 116.37033 115.21988 110.74591 115.13908 110.75759 114.19105 116.38200 114.27202
      19 113.57566 113.75715         10.49762   0.825628 116.38200 114.27202 110.75759 114.19105 110.76934 113.24215 116.39375 113.32329
      19 113.58745 112.80789         10.50570   0.827314 116.39375 113.32329 110.76934 113.24215 110.78116 112.29237 116.40557 112.37367
      19 113.59930 111.85775         10.51378   0.829003 116.40557 112.37367 110.78116 112.29237 110.79305 111.34171 116.41746 111.42317
      19 113.61123 110.90673         10.52188   0.830694 116.41746 111.42317 110.79305 111.34171 110.80501 110.39016 116.42942 110.47180
      19 113.62322 109.95483         10.52997   0.832386 116.42942 110.47180 110.80501 110.39016 110.81705 109.43774 116.44145 109.51954
      19 113.63529 109.00204         10.53808   0.834080 116.44145 109.51954 110.81705 109.43774 110.82915 108.48443 116.45355 108.56639
      19 113.64743 108.04837         10.54618   0.835777 116.45355 108.56639 110.82915 108.48443 110.84132 107.53023 116.46572 107.61237
      19 113.65964 107.09382         10.55430   0.837475 116.46572 107.61237 110.84132 107.53023 110.85357 106.57515 116.47796 106.65745
      19 113.67191 106.13838         10.56242   0.839175 116.47796 106.65745 110.85357 106.57515 110.86588 105.61919 116.49028 105.70166
      19 113.68426 105.18206         10.57055   0.840877 116.49028 105.70166 110.86588 105.61919 110.87827 104.66234 116.50266 104.74497
      19 113.69669 104.22485         10.57868   0.842581 116.50266 104.74497 110.87827 104.66234 110.89073 103.70460 116.51512 103.78740
      19 113.70918 103.26675         10.58683   0.844287 116.51512 103.78740 110.89073 103.70460 110.90326 102.74597 116.52764 102.82894
      19 113.72174 102.30776         10.59497   0.845995 116.52764 102.82894 110.90326 102.74597 110.91586 101.78645 116.54024 101.86959
      19 113.73438 101.34788         10.60313   0.847704 116.54024 101.86959 110.91586 101.78645 110.92853 100.82605 116.55291 100.90935
      19 113.74709 100.38711         10.61128   0.849416 116.55291 100.90935 110.92853 100.82605 110.94128  99.86475 116.56566  99.94822
      19 113.75987  99.42545         10.61945   0.851130 116.56566  99.94822 110.94128  99.86475 110.95409  98.90256 116.57847  98.98620
      19 113.77272  98.46289         10.62762   0.852845 116.57847  98.98620 110.95409  98.90256 110.96698  97.93947 116.59136  98.02328
      19 113.78564  97.49945         10.63580   0.854563 116.59136  98.02328 110.96698  97.93947 110.97994  96.97549 116.60432  97.05947
      19 113.79864  96.53510         10.64398   0.856282 116.60432  97.05947 110.97994  96.97549 110.99298  96.01062 116.61735  96.09476
      19 113.81171  95.56987         10.65218   0.858003 116.61735  96.09476 110.99298  96.01062 111.00609  95.04485 116.63045  95.12916
      19 113.82485  94.60373         10.66037   0.859727 116.63045  95.12916 111.00609  95.04485 111.01926  94.07818 116.64363  94.16267
