\wavsamp version 5.0 (Thu May  9 10:19:35 PDT 2002)
\processing time 18:47:26 PST 01/05/2004
\character channelID = 1
| order |x_center |y_center |   wavelength   |  angle   |   x0    |   y0    |   x1    |   y1    |   x2    |   y2    |   x3    |   y3    |
| int   |  real   |  real   |    real        |   real   |  real   |  real   |  real   |  real   |  real   |  real   |  real   |  real   |
      20 120.32319 127.99667          9.89276   6.481150 122.79578 128.77164 117.82774 128.20726 117.85060 127.22170 122.81865 127.78608
      20 120.34607 127.01073          9.90037   6.481150 122.81865 127.78608 117.85060 127.22170 117.87349 126.23539 122.84153 126.79977
      20 120.36896 126.02404          9.90799   6.481150 122.84153 126.79977 117.87349 126.23539 117.89639 125.24831 122.86443 125.81269
      20 120.39187 125.03659          9.91562   6.481150 122.86443 125.81269 117.89639 125.24831 117.91931 124.26048 122.88735 124.82486
      20 120.41480 124.04837          9.92325   6.481150 122.88735 124.82486 117.91931 124.26048 117.94224 123.27189 122.91029 123.83627
      20 120.43774 123.05940          9.93088   6.481150 122.91029 123.83627 117.94224 123.27189 117.96520 122.28253 122.93324 122.84691
      20 120.46071 122.06966          9.93852   6.481150 122.93324 122.84691 117.96520 122.28253 117.98817 121.29242 122.95621 121.85680
      20 120.48369 121.07917          9.94617   6.481150 122.95621 121.85680 117.98817 121.29242 118.01116 120.30154 122.97920 120.86592
      20 120.50669 120.08791          9.95383   6.481150 122.97920 120.86592 118.01116 120.30154 118.03417 119.30990 123.00221 119.87428
      20 120.52970 119.09589          9.96149   6.481150 123.00221 119.87428 118.03417 119.30990 118.05719 118.31749 123.02524 118.88188
      20 120.55274 118.10310          9.96915   6.481150 123.02524 118.88188 118.05719 118.31749 118.08023 117.32433 123.04828 117.88871
      20 120.57579 117.10955          9.97682   6.481150 123.04828 117.88871 118.08023 117.32433 118.10330 116.33040 123.07134 116.89478
      20 120.59886 116.11524          9.98450   6.481150 123.07134 116.89478 118.10330 116.33040 118.12637 115.33570 123.09442 115.90008
      20 120.62194 115.12016          9.99218   6.481150 123.09442 115.90008 118.12637 115.33570 118.14947 114.34024 123.11751 114.90462
      20 120.64505 114.12432          9.99987   6.481150 123.11751 114.90462 118.14947 114.34024 118.17258 113.34401 123.14063 113.90839
      20 120.66817 113.12771         10.00757   6.481150 123.14063 113.90839 118.17258 113.34401 118.19571 112.34702 123.16376 112.91140
      20 120.69131 112.13033         10.01527   6.481150 123.16376 112.91140 118.19571 112.34702 118.21886 111.34926 123.18691 111.91364
      20 120.71447 111.13218         10.02298   6.481150 123.18691 111.91364 118.21886 111.34926 118.24203 110.35073 123.21008 110.91511
      20 120.73765 110.13327         10.03069   6.481150 123.21008 110.91511 118.24203 110.35073 118.26522 109.35143 123.23326 109.91581
      20 120.76084 109.13359         10.03841   6.481150 123.23326 109.91581 118.26522 109.35143 118.28842 108.35136 123.25646 108.91575
      20 120.78405 108.13314         10.04613   6.481150 123.25646 108.91575 118.28842 108.35136 118.31164 107.35053 123.27969 107.91491
      20 120.80728 107.13192         10.05386   6.481150 123.27969 107.91491 118.31164 107.35053 118.33488 106.34892 123.30292 106.91330
      20 120.83053 106.12992         10.06160   6.481150 123.30292 106.91330 118.33488 106.34892 118.35814 105.34654 123.32618 105.91093
      20 120.85379 105.12716         10.06934   6.481150 123.32618 105.91093 118.35814 105.34654 118.38141 104.34340 123.34945 104.90778
      20 120.87708 104.12363         10.07709   6.481150 123.34945 104.90778 118.38141 104.34340 118.40470 103.33948 123.37275 103.90386
      20 120.90038 103.11932         10.08485   6.481150 123.37275 103.90386 118.40470 103.33948 118.42801 102.33478 123.39606 102.89916
      20 120.92370 102.11424         10.09261   6.481150 123.39606 102.89916 118.42801 102.33478 118.45134 101.32932 123.41939 101.89370
      20 120.94704 101.10839         10.10037   6.481150 123.41939 101.89370 118.45134 101.32932 118.47469 100.32308 123.44273 100.88746
      20 120.97039 100.10176         10.10815   6.481150 123.44273 100.88746 118.47469 100.32308 118.49805  99.31606 123.46610  99.88044
      20 120.99376  99.09436         10.11592   6.481150 123.46610  99.88044 118.49805  99.31606 118.52143  98.30827 123.48948  98.87266
      20 121.01716  98.08618         10.12371   6.481150 123.48948  98.87266 118.52143  98.30827 118.54483  97.29971 123.51288  97.86409
      20 121.04056  97.07723         10.13150   6.481150 123.51288  97.86409 118.54483  97.29971 118.56825  96.29037 123.53630  96.85475
      20 121.06399  96.06750         10.13930   6.481150 123.53630  96.85475 118.56825  96.29037 118.59169  95.28025 123.55973  95.84463
      20 121.08744  95.05700         10.14710   6.481150 123.55973  95.84463 118.59169  95.28025 118.61514  94.26936 123.58319  94.83374
      20 121.11090  94.04571         10.15491   6.481150 123.58319  94.83374 118.61514  94.26936 118.63861  93.25768 123.60666  93.82207
      20 121.13438  93.03365         10.16272   6.481150 123.60666  93.82207 118.63861  93.25768 118.66210  92.24523 123.63015  92.80962
      20 121.15788  92.02081         10.17054   6.481150 123.63015  92.80962 118.66210  92.24523 118.68561  91.23200 123.65366  91.79638
      20 121.18140  91.00719         10.17837   6.481150 123.65366  91.79638 118.68561  91.23200 118.70914  90.21799 123.67718  90.78238
      20 121.20493  89.99279         10.18620   6.481150 123.67718  90.78238 118.70914  90.21799 118.73268  89.20320 123.70073  89.76758
      20 121.22849  88.97761         10.19404   6.481150 123.70073  89.76758 118.73268  89.20320 118.75624  88.18763 123.72429  88.75201
      20 121.25206  87.96165         10.20188   6.481150 123.72429  88.75201 118.75624  88.18763 118.77983  87.17128 123.74787  87.73566
      20 121.27565  86.94490         10.20973   6.481150 123.74787  87.73566 118.77983  87.17128 118.80342  86.15414 123.77147  86.71853
      20 121.29926  85.92738         10.21759   6.481150 123.77147  86.71853 118.80342  86.15414 118.82704  85.13623 123.79509  85.70061
      20 121.32288  84.90907         10.22545   6.481150 123.79509  85.70061 118.82704  85.13623 118.85068  84.11753 123.81872  84.68191
      20 121.34653  83.88998         10.23332   6.481150 123.81872  84.68191 118.85068  84.11753 118.87433  83.09804 123.84238  83.66242
      20 121.37019  82.87010         10.24120   6.481150 123.84238  83.66242 118.87433  83.09804 118.89800  82.07777 123.86605  82.64215
      20 121.39387  81.84944         10.24908   6.481150 123.86605  82.64215 118.89800  82.07777 118.92169  81.05672 123.88974  81.62110
      20 121.41757  80.82799         10.25697   6.481150 123.88974  81.62110 118.92169  81.05672 118.94540  80.03488 123.91344  80.59926
      20 121.44129  79.80576         10.26486   6.481150 123.91344  80.59926 118.94540  80.03488 118.96913  79.01225 123.93717  79.57663
      20 121.46502  78.78274         10.27276   6.481150 123.93717  79.57663 118.96913  79.01225 118.99287  77.98884 123.96092  78.55322
      20 121.48877  77.75893         10.28066   6.481150 123.96092  78.55322 118.99287  77.98884 119.01663  76.96464 123.98468  77.52902
      20 121.51255  76.73433         10.28857   6.481150 123.98468  77.52902 119.01663  76.96464 119.04041  75.93965 124.00846  76.50403
      20 121.53634  75.70895         10.29649   6.481150 124.00846  76.50403 119.04041  75.93965 119.06421  74.91387 124.03226  75.47825
      20 121.56015  74.68278         10.30441   6.481150 124.03226  75.47825 119.06421  74.91387 119.08803  73.88730 124.05608  74.45169
      20 121.58397  73.65582         10.31234   6.481150 124.05608  74.45169 119.08803  73.88730 119.11187  72.85995 124.07991  73.42433
      20 121.60782  72.62806         10.32028   6.481150 124.07991  73.42433 119.11187  72.85995 119.13572  71.83180 124.10377  72.39618
      20 121.63168  71.59952         10.32822   6.481150 124.10377  72.39618 119.13572  71.83180 119.15959  70.80286 124.12764  71.36724
      20 121.65556  70.57019         10.33617   6.481150 124.12764  71.36724 119.15959  70.80286 119.18349  69.77313 124.15153  70.33751
      20 121.67946  69.54006         10.34412   6.481150 124.15153  70.33751 119.18349  69.77313 119.20740  68.74261 124.17544  69.30699
      20 121.70338  68.50914         10.35208   6.481150 124.17544  69.30699 119.20740  68.74261 119.23132  67.71129 124.19937  68.27567
      20 121.72732  67.47743         10.36005   6.481150 124.19937  68.27567 119.23132  67.71129 119.25527  66.67918 124.22331  67.24356
      20 121.75127  66.44492         10.36802   6.481150 124.22331  67.24356 119.25527  66.67918 119.27923  65.64628 124.24728  66.21066
      20 121.77525  65.41162         10.37600   6.481150 124.24728  66.21066 119.27923  65.64628 119.30322  64.61258 124.27126  65.17696
      20 121.79924  64.37752         10.38399   6.481150 124.27126  65.17696 119.30322  64.61258 119.32722  63.57808 124.29526  64.14247
      20 121.82325  63.34263         10.39198   6.481150 124.29526  64.14247 119.32722  63.57808 119.35124  62.54279 124.31928  63.10718
      20 121.84728  62.30694         10.39997   6.481150 124.31928  63.10718 119.35124  62.54279 119.37528  61.50671 124.34332  62.07109
      20 121.87133  61.27046         10.40798   6.481150 124.34332  62.07109 119.37528  61.50671 119.39933  60.46982 124.36738  61.03420
      20 121.89540  60.23317         10.41598   6.481150 124.36738  61.03420 119.39933  60.46982 119.42341  59.43214 124.39146  59.99652
      20 121.91948  59.19509         10.42400   6.481150 124.39146  59.99652 119.42341  59.43214 119.44750  58.39366 124.41555  58.95804
      20 121.94358  58.15621         10.43202   6.481150 124.41555  58.95804 119.44750  58.39366 119.47162  57.35438 124.43966  57.91876
      20 121.96771  57.11653         10.44005   6.481150 124.43966  57.91876 119.47162  57.35438 119.49575  56.31430 124.46379  56.87868
      20 121.99185  56.07605         10.44808   6.481150 124.46379  56.87868 119.49575  56.31430 119.51990  55.27342 124.48794  55.83780
      20 122.01601  55.03477         10.45612   6.481150 124.48794  55.83780 119.51990  55.27342 119.54407  54.23174 124.51211  54.79612
      20 122.04018  53.99269         10.46417   6.481150 124.51211  54.79612 119.54407  54.23174 119.56825  53.18926 124.53630  53.75364
      20 122.06438  52.94981         10.47222   6.481150 124.53630  53.75364 119.56825  53.18926 119.59246  52.14597 124.56050  52.71035
      20 122.08859  51.90612         10.48028   6.481150 124.56050  52.71035 119.59246  52.14597 119.61668  51.10189 124.58473  51.66627
      20 122.11283  50.86163         10.48835   6.481150 124.58473  51.66627 119.61668  51.10189 119.64093  50.05699 124.60897  50.62138
      20 122.13708  49.81634         10.49642   6.481150 124.60897  50.62138 119.64093  50.05699 119.66519  49.01130 124.63323  49.57568
      20 122.16135  48.77024         10.50449   6.481150 124.63323  49.57568 119.66519  49.01130 119.68947  47.96480 124.65751  48.52918
      20 122.18564  47.72334         10.51258   6.481150 124.65751  48.52918 119.68947  47.96480 119.71377  46.91749 124.68181  47.48188
      20 122.20995  46.67563         10.52067   6.481150 124.68181  47.48188 119.71377  46.91749 119.73808  45.86938 124.70613  46.43376
      20 122.23428  45.62711         10.52876   6.481150 124.70613  46.43376 119.73808  45.86938 119.76242  44.82047 124.73047  45.38485
      20 122.25862  44.57779         10.53687   6.481150 124.73047  45.38485 119.76242  44.82047 119.78678  43.77074 124.75482  44.33512
      20 122.28299  43.52767         10.54497   6.481150 124.75482  44.33512 119.78678  43.77074 119.81115  42.72021 124.77919  43.28459
      20 122.30737  42.47673         10.55309   6.481150 124.77919  43.28459 119.81115  42.72021 119.83554  41.66887 124.80359  42.23325
      20 122.33177  41.42498         10.56121   6.481150 124.80359  42.23325 119.83554  41.66887 119.85995  40.61672 124.82800  41.18110
      20 122.35619  40.37243         10.56934   6.481150 124.82800  41.18110 119.85995  40.61672 119.88438  39.56376 124.85243  40.12814
      20 122.38063  39.31906         10.57747   6.481150 124.85243  40.12814 119.88438  39.56376 119.90883  38.50999 124.87688  39.07437
      20 122.40509  38.26489         10.58561   6.481150 124.87688  39.07437 119.90883  38.50999 119.93330  37.45541 124.90135  38.01979
      20 122.42957  37.20990         10.59376   6.481150 124.90135  38.01979 119.93330  37.45541 119.95779  36.40001 124.92583  36.96440
      20 122.45406  36.15410         10.60191   6.481150 124.92583  36.96440 119.95779  36.40001 119.98229  35.34381 124.95034  35.90819
      20 122.47858  35.09749         10.61007   6.481150 124.95034  35.90819 119.98229  35.34381 120.00682  34.28679 124.97486  34.85117
      20 122.50311  34.04007         10.61823   6.481150 124.97486  34.85117 120.00682  34.28679 120.03136  33.22896 124.99940  33.79334
      20 122.52766  32.98183         10.62640   6.481150 124.99940  33.79334 120.03136  33.22896 120.05592  32.17032 125.02397  32.73470
      20 122.55223  31.92278         10.63458   6.481150 125.02397  32.73470 120.05592  32.17032 120.08050  31.11086 125.04855  31.67524
      20 122.57682  30.86291         10.64276   6.481150 125.04855  31.67524 120.08050  31.11086 120.10510  30.05058 125.07315  30.61496
      20 122.60143  29.80223         10.65095   6.481150 125.07315  30.61496 120.10510  30.05058 120.12972  28.98949 125.09777  29.55387
      20 122.62606  28.74073         10.65915   6.481150 125.09777  29.55387 120.12972  28.98949 120.15436  27.92758 125.12240  28.49197
      20 122.65071  27.67841         10.66735   6.481150 125.12240  28.49197 120.15436  27.92758 120.17901  26.86486 125.14706  27.42924
      20 122.67538  26.61528         10.67556   6.481150 125.14706  27.42924 120.17901  26.86486 120.20369  25.80132 125.17174  26.36570
      20 122.70006  25.55133         10.68378   6.481150 125.17174  26.36570 120.20369  25.80132 120.22839  24.73696 125.19643  25.30134
      20 122.72476  24.48656         10.69200   6.481150 125.19643  25.30134 120.22839  24.73696 120.25310  23.67178 125.22114  24.23616
      20 122.74949  23.42097         10.70022   6.481150 125.22114  24.23616 120.25310  23.67178 120.27783  22.60578 125.24588  23.17016
      20 122.77423  22.35456         10.70846   6.481150 125.24588  23.17016 120.27783  22.60578 120.30258  21.53896 125.27063  22.10334
      20 122.79899  21.28733         10.71670   6.481150 125.27063  22.10334 120.30258  21.53896 120.32735  20.47132 125.29540  21.03570
      20 122.82377  20.21928         10.72495   6.481150 125.29540  21.03570 120.32735  20.47132 120.35214  19.40286 125.32019  19.96724
      20 122.84857  19.15041         10.73320   6.481150 125.32019  19.96724 120.35214  19.40286 120.37695  18.33357 125.34500  18.89795
      20 122.87339  18.08071         10.74146   6.481150 125.34500  18.89795 120.37695  18.33357 120.40178  17.26347 125.36983  17.82785
      20 122.89823  17.01019         10.74972   6.481150 125.36983  17.82785 120.40178  17.26347 120.42663  16.19254 125.39467  16.75692
      20 122.92308  15.93885         10.75800   6.481150 125.39467  16.75692 120.42663  16.19254 120.45149  15.12078 125.41954  15.68516
      20 122.94796  14.86668         10.76628   6.481150 125.41954  15.68516 120.45149  15.12078 120.47638  14.04820 125.44442  14.61258
      20 122.97285  13.79369         10.77456   6.481150 125.44442  14.61258 120.47638  14.04820 120.50128  12.97480 125.46933  13.53918
      20 122.99777  12.71987         10.78285   6.481150 125.46933  13.53918 120.50128  12.97480 120.52621  11.90057 125.49425  12.46495
      20 123.02270  11.64523         10.79115   6.481150 125.49425  12.46495 120.52621  11.90057 120.55115  10.82551 125.51919  11.38989
      20 123.04765  10.56976         10.79945   6.481150 125.51919  11.38989 120.55115  10.82551 120.57611   9.74962 125.54416  10.31400
      20 123.07262   9.49346         10.80776   6.481150 125.54416  10.31400 120.57611   9.74962 120.60109   8.67291 125.56914   9.23729
      20 123.09762   8.41633         10.81608   6.481150 125.56914   9.23729 120.60109   8.67291 120.62609   7.59537 125.59414   8.15975
      20 123.12263   7.33837         10.82440   6.481150 125.59414   8.15975 120.62609   7.59537 120.65111   6.51700 125.61916   7.08138
      20 123.14765   6.25959         10.83273   6.481150 125.61916   7.08138 120.65111   6.51700 120.67615   5.43780 125.64420   6.00218
      20 123.17270   5.17997         10.84107   6.481150 125.64420   6.00218 120.67615   5.43780 120.70121   4.35777 125.66925   4.92215
      20 123.19777   4.09953         10.84941   6.481150 125.66925   4.92215 120.70121   4.35777 120.72629   3.27691 125.69433   3.84129
      20 123.22286   3.01825         10.85776   6.481150 125.69433   3.84129 120.72629   3.27691 120.75138   2.19521 125.71943   2.75959
      20 123.24796   1.93614         10.86612   6.481150 125.71943   2.75959 120.75138   2.19521 120.77650   1.11269 125.74455   1.67707
      20 123.27309   0.85320         10.87448   6.481150 125.74455   1.67707 120.77650   1.11269 120.80164   0.02933 125.76968   0.59371
      19 113.31055 127.53637         10.38399   6.669800 115.78491 128.29604 110.81875 127.71530 110.83618 126.77671 115.80234 127.35745
      19 113.32798 126.59743         10.39198   6.669800 115.80234 127.35745 110.83618 126.77671 110.85361 125.83740 115.81977 126.41814
      19 113.34542 125.65775         10.39997   6.669800 115.81977 126.41814 110.85361 125.83740 110.87106 124.89737 115.83722 125.47811
      19 113.36288 124.71736         10.40798   6.669800 115.83722 125.47811 110.87106 124.89737 110.88853 123.95661 115.85469 124.53735
      19 113.38035 123.77624         10.41598   6.669800 115.85469 124.53735 110.88853 123.95661 110.90601 123.01513 115.87217 123.59587
      19 113.39783 122.83440         10.42400   6.669800 115.87217 123.59587 110.90601 123.01513 110.92350 122.07293 115.88966 122.65367
      19 113.41533 121.89183         10.43202   6.669800 115.88966 122.65367 110.92350 122.07293 110.94100 121.13000 115.90716 121.71074
      19 113.43284 120.94854         10.44005   6.669800 115.90716 121.71074 110.94100 121.13000 110.95852 120.18635 115.92468 120.76708
      19 113.45036 120.00452         10.44808   6.669800 115.92468 120.76708 110.95852 120.18635 110.97605 119.24196 115.94221 119.82270
      19 113.46790 119.05978         10.45612   6.669800 115.94221 119.82270 110.97605 119.24196 110.99359 118.29686 115.95975 118.87759
      19 113.48545 118.11431         10.46417   6.669800 115.95975 118.87759 110.99359 118.29686 111.01115 117.35102 115.97731 117.93176
      19 113.50302 117.16811         10.47222   6.669800 115.97731 117.93176 111.01115 117.35102 111.02872 116.40446 115.99488 116.98519
      19 113.52059 116.22118         10.48028   6.669800 115.99488 116.98519 111.02872 116.40446 111.04631 115.45717 116.01247 116.03790
      19 113.53819 115.27352         10.48835   6.669800 116.01247 116.03790 111.04631 115.45717 111.06391 114.50915 116.03007 115.08988
      19 113.55579 114.32514         10.49642   6.669800 116.03007 115.08988 111.06391 114.50915 111.08152 113.56040 116.04768 114.14113
      19 113.57341 113.37602         10.50449   6.669800 116.04768 114.14113 111.08152 113.56040 111.09914 112.61092 116.06530 113.19165
      19 113.59104 112.42618         10.51258   6.669800 116.06530 113.19165 111.09914 112.61092 111.11678 111.66071 116.08294 112.24144
      19 113.60869 111.47560         10.52067   6.669800 116.08294 112.24144 111.11678 111.66071 111.13444 110.70976 116.10060 111.29050
      19 113.62635 110.52430         10.52876   6.669800 116.10060 111.29050 111.13444 110.70976 111.15210 109.75809 116.11826 110.33883
