\wavsamp version 5.1 (Wed Apr 20 08:45:04 PDT 2005)
\processing time 16:14:07 PST 08/13/2009
\character channelID = 2
| order |x_center |y_center |   wavelength   |  angle   |   x0    |   y0    |   x1    |   y1    |   x2    |   y2    |   x3    |   y3    |
| int   |  real   |  real   |    real        |   real   |  real   |  real   |  real   |  real   |  real   |  real   |  real   |  real   |
       2  78.27220  80.49824         13.90000  -1.200000  95.27889  80.60396  61.28635  81.31601  61.26574  80.39252  95.25829  79.68048
       2  78.25206  79.57476         13.98468  -1.200000  95.25829  79.68048  61.26574  80.39252  61.24607  79.46904  95.23861  78.75700
       2  78.23286  78.65128         14.06935  -1.200000  95.23861  78.75700  61.24607  79.46904  61.22733  78.54556  95.21987  77.83351
       2  78.21458  77.72779         14.15403  -1.200000  95.21987  77.83351  61.22733  78.54556  61.20953  77.62207  95.20207  76.91003
       2  78.19725  76.80431         14.23871  -1.200000  95.20207  76.91003  61.20953  77.62207  61.19266  76.69859  95.18520  75.98655
       2  78.18085  75.88083         14.32338  -1.200000  95.18520  75.98655  61.19266  76.69859  61.17673  75.77511  95.16927  75.06306
       2  78.16539  74.95734         14.40806  -1.200000  95.16927  75.06306  61.17673  75.77511  61.16174  74.85162  95.15428  74.13958
       2  78.15086  74.03386         14.49274  -1.200000  95.15428  74.13958  61.16174  74.85162  61.14767  73.92814  95.14022  73.21610
       2  78.13727  73.11038         14.57741  -1.200000  95.14022  73.21610  61.14767  73.92814  61.13455  73.00466  95.12709  72.29261
       2  78.12461  72.18689         14.66209  -1.200000  95.12709  72.29261  61.13455  73.00466  61.12236  72.08117  95.11490  71.36913
       2  78.11289  71.26341         14.74677  -1.200000  95.11490  71.36913  61.12236  72.08117  61.11111  71.15769  95.10365  70.44565
       2  78.10210  70.33993         14.83145  -1.200000  95.10365  70.44565  61.11111  71.15769  61.10079  70.23421  95.09333  69.52217
       2  78.09225  69.41644         14.91612  -1.200000  95.09333  69.52217  61.10079  70.23421  61.09141  69.31072  95.08395  68.59868
       2  78.08334  68.49296         15.00080  -1.200000  95.08395  68.59868  61.09141  69.31072  61.08296  68.38724  95.07550  67.67520
       2  78.07536  67.56948         15.08548  -1.200000  95.07550  67.67520  61.08296  68.38724  61.07545  67.46376  95.06799  66.75172
       2  78.06831  66.64599         15.17015  -1.200000  95.06799  66.75172  61.07545  67.46376  61.06887  66.54027  95.06141  65.82823
       2  78.06221  65.72251         15.25483  -1.200000  95.06141  65.82823  61.06887  66.54027  61.06323  65.61679  95.05577  64.90475
       2  78.05703  64.79903         15.33951  -1.200000  95.05577  64.90475  61.06323  65.61679  61.05853  64.69331  95.05107  63.98127
       2  78.05280  63.87554         15.42418  -1.200000  95.05107  63.98127  61.05853  64.69331  61.05476  63.76982  95.04730  63.05778
       2  78.04950  62.95206         15.50886  -1.200000  95.04730  63.05778  61.05476  63.76982  61.05192  62.84634  95.04447  62.13430
       2  78.04713  62.02858         15.59354  -1.200000  95.04447  62.13430  61.05192  62.84634  61.05003  61.92286  95.04257  61.21082
       2  78.04570  61.10510         15.67821  -1.200000  95.04257  61.21082  61.05003  61.92286  61.04906  60.99937  95.04161  60.28733
       2  78.04520  60.18161         15.76289  -1.200000  95.04161  60.28733  61.04906  60.99937  61.04904  60.07589  95.04158  59.36385
       2  78.04564  59.25813         15.84757  -1.200000  95.04158  59.36385  61.04904  60.07589  61.04994  59.15241  95.04249  58.44037
       2  78.04702  58.33465         15.93224  -1.200000  95.04249  58.44037  61.04994  59.15241  61.05179  58.22892  95.04433  57.51688
       2  78.04933  57.41116         16.01692  -1.200000  95.04433  57.51688  61.05179  58.22892  61.05457  57.30544  95.04711  56.59340
       2  78.05258  56.48768         16.10160  -1.200000  95.04711  56.59340  61.05457  57.30544  61.05828  56.38196  95.05083  55.66992
       2  78.05676  55.56420         16.18628  -1.200000  95.05083  55.66992  61.05828  56.38196  61.06293  55.45847  95.05548  54.74643
       2  78.06188  54.64071         16.27095  -1.200000  95.05548  54.74643  61.06293  55.45847  61.06852  54.53499  95.06106  53.82295
       2  78.06794  53.71723         16.35563  -1.200000  95.06106  53.82295  61.06852  54.53499  61.07504  53.61151  95.06758  52.89947
       2  78.07492  52.79375         16.44031  -1.200000  95.06758  52.89947  61.07504  53.61151  61.08250  52.68803  95.07504  51.97598
       2  78.08285  51.87026         16.52498  -1.200000  95.07504  51.97598  61.08250  52.68803  61.09089  51.76454  95.08343  51.05250
       2  78.09171  50.94678         16.60966  -1.200000  95.08343  51.05250  61.09089  51.76454  61.10022  50.84106  95.09276  50.12902
       2  78.10151  50.02330         16.69434  -1.200000  95.09276  50.12902  61.10022  50.84106  61.11048  49.91758  95.10303  49.20553
       2  78.11224  49.09981         16.77901  -1.200000  95.10303  49.20553  61.11048  49.91758  61.12168  48.99409  95.11423  48.28205
       2  78.12390  48.17633         16.86369  -1.200000  95.11423  48.28205  61.12168  48.99409  61.13382  48.07061  95.12636  47.35857
       2  78.13651  47.25285         16.94837  -1.200000  95.12636  47.35857  61.13382  48.07061  61.14689  47.14713  95.13943  46.43508
       2  78.15005  46.32936         17.03304  -1.200000  95.13943  46.43508  61.14689  47.14713  61.16089  46.22364  95.15344  45.51160
       2  78.16452  45.40588         17.11772  -1.200000  95.15344  45.51160  61.16089  46.22364  61.17584  45.30016  95.16838  44.58812
       2  78.17993  44.48240         17.20240  -1.200000  95.16838  44.58812  61.17584  45.30016  61.19171  44.37668  95.18426  43.66463
       2  78.19627  43.55891         17.28707  -1.200000  95.18426  43.66463  61.19171  44.37668  61.20853  43.45319  95.20107  42.74115
       2  78.21355  42.63543         17.37175  -1.200000  95.20107  42.74115  61.20853  43.45319  61.22627  42.52971  95.21882  41.81767
       2  78.23177  41.71195         17.45643  -1.200000  95.21882  41.81767  61.22627  42.52971  61.24496  41.60623  95.23750  40.89418
       2  78.25092  40.78846         17.54111  -1.200000  95.23750  40.89418  61.24496  41.60623  61.26458  40.68274  95.25712  39.97070
       2  78.27101  39.86498         17.62578  -1.200000  95.25712  39.97070  61.26458  40.68274  61.28513  39.75926  95.27767  39.04722
       2  78.29203  38.94150         17.71046  -1.200000  95.27767  39.04722  61.28513  39.75926  61.30662  38.83578  95.29917  38.12373
       2  78.31399  38.01801         17.79514  -1.200000  95.29917  38.12373  61.30662  38.83578  61.32905  37.91229  95.32159  37.20025
       2  78.33688  37.09453         17.87981  -1.200000  95.32159  37.20025  61.32905  37.91229  61.35241  36.98881  95.34495  36.27677
       2  78.36071  36.17105         17.96449  -1.200000  95.34495  36.27677  61.35241  36.98881  61.37671  36.06533  95.36925  35.35328
       2  78.38548  35.24756         18.04917  -1.200000  95.36925  35.35328  61.37671  36.06533  61.40194  35.14184  95.39448  34.42980
       2  78.41118  34.32408         18.13384  -1.200000  95.39448  34.42980  61.40194  35.14184  61.42811  34.21836  95.42065  33.50632
       2  78.43781  33.40060         18.21852  -1.200000  95.42065  33.50632  61.42811  34.21836  61.45521  33.29488  95.44775  32.58283
       2  78.46539  32.47711         18.30320  -1.200000  95.44775  32.58283  61.45521  33.29488  61.48325  32.37139  95.47579  31.65935
       2  78.49389  31.55363         18.38787  -1.200000  95.47579  31.65935  61.48325  32.37139  61.51223  31.44791  95.50477  30.73587
       2  78.52333  30.63015         18.47255  -1.200000  95.50477  30.73587  61.51223  31.44791  61.54214  30.52443  95.53468  29.81238
       2  78.55371  29.70666         18.55723  -1.200000  95.53468  29.81238  61.54214  30.52443  61.57298  29.60094  95.56552  28.88890
       2  78.58503  28.78318         18.64190  -1.200000  95.56552  28.88890  61.57298  29.60094  61.60476  28.67746  95.59731  27.96542
       2  78.61728  27.85970         18.72658  -1.200000  95.59731  27.96542  61.60476  28.67746  61.63748  27.75398  95.63002  27.04193
       2  78.65046  26.93621         18.81126  -1.200000  95.63002  27.04193  61.63748  27.75398  61.67113  26.83049  95.66367  26.11845
       2  78.68458  26.01273         18.89594  -1.200000  95.66367  26.11845  61.67113  26.83049  61.70572  25.90701  95.69826  25.19497
       2  78.71964  25.08925         18.98061  -1.200000  95.69826  25.19497  61.70572  25.90701  61.74124  24.98353  95.73379  24.27148
       2  78.75563  24.16576         19.06529  -1.200000  95.73379  24.27148  61.74124  24.98353  61.77770  24.06004  95.77025  23.34800
       2  78.79255  23.24228         19.14997  -1.200000  95.77025  23.34800  61.77770  24.06004  61.81510  23.13656  95.80764  22.42452
       2  78.83042  22.31880         19.23464  -1.200000  95.80764  22.42452  61.81510  23.13656  61.85343  22.21308  95.84597  21.50103
       2  78.86921  21.39531         19.31932  -1.200000  95.84597  21.50103  61.85343  22.21308  61.89269  21.28959  95.88524  20.57755
       2  78.90895  20.47183         19.40400  -1.200000  95.88524  20.57755  61.89269  21.28959  61.93289  20.36611  95.92544  19.65407
       2  78.94962  19.54835         19.48867  -1.200000  95.92544  19.65407  61.93289  20.36611  61.97403  19.44263  95.96657  18.73058
       2  78.99122  18.62486         19.57335  -1.200000  95.96657  18.73058  61.97403  19.44263  62.01610  18.51914  96.00865  17.80710
       2  79.03376  17.70138         19.65803  -1.200000  96.00865  17.80710  62.01610  18.51914  62.05911  17.59566  96.05165  16.88362
       2  79.07724  16.77790         19.74270  -1.200000  96.05165  16.88362  62.05911  17.59566  62.10306  16.67218  96.09560  15.96013
       2  79.12165  15.85441         19.82738  -1.200000  96.09560  15.96013  62.10306  16.67218  62.14793  15.74869  96.14048  15.03665
       2  79.16700  14.93093         19.91206  -1.200000  96.14048  15.03665  62.14793  15.74869  62.19375  14.82521  96.18629  14.11317
       2  79.21328  14.00745         19.99673  -1.200000  96.18629  14.11317  62.19375  14.82521  62.24050  13.90173  96.23304  13.18968
       2  79.26050  13.08396         20.08141  -1.200000  96.23304  13.18968  62.24050  13.90173  62.28818  12.97824  96.28073  12.26620
       2  79.30865  12.16048         20.16609  -1.200000  96.28073  12.26620  62.28818  12.97824  62.33681  12.05476  96.32935  11.34272
       2  79.35774  11.23700         20.25077  -1.200000  96.32935  11.34272  62.33681  12.05476  62.38636  11.13128  96.37891  10.41924
       2  79.40776  10.31351         20.33544  -1.200000  96.37891  10.41924  62.38636  11.13128  62.43685  10.20779  96.42940   9.49575
       2  79.45872   9.39003         20.42012  -1.200000  96.42940   9.49575  62.43685  10.20779  62.48828   9.28431  96.48083   8.57227
       2  79.51062   8.46655         20.50480  -1.200000  96.48083   8.57227  62.48828   9.28431  62.54065   8.36083  96.53319   7.64879
       2  79.56345   7.54306         20.58947  -1.200000  96.53319   7.64879  62.54065   8.36083  62.59394   7.43734  96.58649   6.72530
       2  79.61722   6.61958         20.67415  -1.200000  96.58649   6.72530  62.59394   7.43734  62.64818   6.51386  96.64072   5.80182
       2  79.67192   5.69610         20.75883  -1.200000  96.64072   5.80182  62.64818   6.51386  62.70335   5.59038  96.69589   4.87834
       2  79.72756   4.77261         20.84350  -1.200000  96.69589   4.87834  62.70335   5.59038  62.75945   4.66689  96.75200   3.95485
       2  79.78413   3.84913         20.92818  -1.200000  96.75200   3.95485  62.75945   4.66689  62.81650   3.74341  96.80904   3.03137
       2  79.84164   2.92565         21.01286  -1.200000  96.80904   3.03137  62.81650   3.74341  62.87447   2.81993  96.86701   2.10789
       2  79.90008   2.00217         21.09753  -1.200000  96.86701   2.10789  62.87447   2.81993  62.93338   1.89644  96.92593   1.18440
       2  79.95946   1.07868         21.18221  -1.200000  96.92593   1.18440  62.93338   1.89644  62.99323   0.97296  96.98577   0.26092
       2  80.01978   0.15520         21.26689  -1.200000  96.98577   0.26092  62.99323   0.97296  63.05402   0.04948  97.04656  -0.66256
       3  80.55938 127.85797         19.23464  -1.200000  97.59006 127.96369  63.59752 128.67573  63.52893 127.75225  97.52147 127.04021
       3  80.49126 126.93449         19.40400  -1.200000  97.52147 127.04021  63.52893 127.75225  63.46128 126.82876  97.45382 126.11672
       3  80.42408 126.01100         19.57335  -1.200000  97.45382 126.11672  63.46128 126.82876  63.39456 125.90528  97.38711 125.19324
       3  80.35783 125.08752         19.74270  -1.200000  97.38711 125.19324  63.39456 125.90528  63.32878 124.98180  97.32133 124.26976
       3  80.29251 124.16403         19.91206  -1.200000  97.32133 124.26976  63.32878 124.98180  63.26394 124.05831  97.25648 123.34627
       3  80.22814 123.24055         20.08141  -1.200000  97.25648 123.34627  63.26394 124.05831  63.20003 123.13483  97.19257 122.42279
       3  80.16470 122.31707         20.25077  -1.200000  97.19257 122.42279  63.20003 123.13483  63.13705 122.21135  97.12960 121.49930
       3  80.10219 121.39358         20.42012  -1.200000  97.12960 121.49930  63.13705 122.21135  63.07502 121.28786  97.06756 120.57582
       3  80.04062 120.47010         20.58947  -1.200000  97.06756 120.57582  63.07502 121.28786  63.01391 120.36438  97.00646 119.65234
       3  79.97998 119.54662         20.75883  -1.200000  97.00646 119.65234  63.01391 120.36438  62.95375 119.44090  96.94629 118.72885
       3  79.92028 118.62313         20.92818  -1.200000  96.94629 118.72885  62.95375 119.44090  62.89451 118.51741  96.88706 117.80537
       3  79.86152 117.69965         21.09753  -1.200000  96.88706 117.80537  62.89451 118.51741  62.83622 117.59393  96.82876 116.88189
       3  79.80369 116.77617         21.26689  -1.200000  96.82876 116.88189  62.83622 117.59393  62.77886 116.67045  96.77140 115.95840
       3  79.74680 115.85268         21.43624  -1.200000  96.77140 115.95840  62.77886 116.67045  62.72243 115.74696  96.71497 115.03492
       3  79.69084 114.92920         21.60560  -1.200000  96.71497 115.03492  62.72243 115.74696  62.66694 114.82348  96.65948 114.11144
       1  42.44862 126.13671         19.74270  -3.490825  59.44341 125.57949  25.50723 127.66169  25.45328 126.68208  59.39092 124.62385
       1  42.39577 125.16935         19.91206  -3.450345  59.39092 124.62385  25.45328 126.68208  25.40008 125.70297  59.33917 123.66873
       1  42.34366 124.20248         20.08141  -3.409850  59.33917 123.66873  25.40008 125.70297  25.34763 124.72436  59.28815 122.71411
       1  42.29230 123.23611         20.25077  -3.369340  59.28815 122.71411  25.34763 124.72436  25.29593 123.74624  59.23787 121.75999
       1  42.24169 122.27025         20.42012  -3.328815  59.23787 121.75999  25.29593 123.74624  25.24499 122.76863  59.18832 120.80639
       1  42.19181 121.30489         20.58947  -3.288274  59.18832 120.80639  25.24499 122.76863  25.19480 121.79150  59.13951 119.85328
       1  42.14268 120.34003         20.75883  -3.247719  59.13951 119.85328  25.19480 121.79150  25.14536 120.81488  59.09143 118.90069
       1  42.09430 119.37567         20.92818  -3.207148  59.09143 118.90069  25.14536 120.81488  25.09667 119.83875  59.04409 117.94860
       1  42.04666 118.41181         21.09753  -3.166563  59.04409 117.94860  25.09667 119.83875  25.04874 118.86312  58.99749 116.99702
       1  41.99976 117.44845         21.26689  -3.125963  58.99749 116.99702  25.04874 118.86312  25.00156 117.88798  58.95162 116.04595
       1  41.95361 116.48560         21.43624  -3.085348  58.95162 116.04595  25.00156 117.88798  24.95513 116.91334  58.90649 115.09538
       1  41.90820 115.52325         21.60560  -3.044718  58.90649 115.09538  24.95513 116.91334  24.90945 115.93920  58.86209 114.14532
       1  41.86353 114.56140         21.77495  -3.004073  58.86209 114.14532  24.90945 115.93920  24.86453 114.96555  58.81843 113.19576
       1  41.81961 113.60005         21.94430  -2.963414  58.81843 113.19576  24.86453 114.96555  24.82035 113.99240  58.77551 112.24671
       1  41.77644 112.63920         22.11366  -2.922740  58.77551 112.24671  24.82035 113.99240  24.77693 113.01975  58.73332 111.29817
       1  41.73400 111.67885         22.28301  -2.882052  58.73332 111.29817  24.77693 113.01975  24.73427 112.04760  58.69187 110.35013
       1  41.69232 110.71901         22.45236  -2.841349  58.69187 110.35013  24.73427 112.04760  24.69235 111.07594  58.65115 109.40260
       1  41.65137 109.75966         22.62172  -2.800632  58.65115 109.40260  24.69235 111.07594  24.65119 110.10478  58.61117 108.45558
       1  41.61117 108.80082         22.79107  -2.759900  58.61117 108.45558  24.65119 110.10478  24.61078 109.13411  58.57192 107.50906
       1  41.57171 107.84248         22.96043  -2.719154  58.57192 107.50906  24.61078 109.13411  24.57112 108.16395  58.53341 106.56305
       1  41.53300 106.88464         23.12978  -2.678394  58.53341 106.56305  24.57112 108.16395  24.53222 107.19427  58.49564 105.61755
       1  41.49503 105.92730         23.29913  -2.637620  58.49564 105.61755  24.53222 107.19427  24.49406 106.22510  58.45860 104.67255
       1  41.45781 104.97047         23.46849  -2.596831  58.45860 104.67255  24.49406 106.22510  24.45666 105.25642  58.42229 103.72805
       1  41.42133 104.01413         23.63784  -2.556028  58.42229 103.72805  24.45666 105.25642  24.42001 104.28824  58.38672 102.78407
       1  41.38559 103.05830         23.80719  -2.515212  58.38672 102.78407  24.42001 104.28824  24.38412 103.32056  58.35189 101.84059
       1  41.35060 102.10297         23.97655  -2.474381  58.35189 101.84059  24.38412 103.32056  24.34898 102.35338  58.31780 100.89761
       1  41.31635 101.14814         24.14590  -2.433537  58.31780 100.89761  24.34898 102.35338  24.31458 101.38669  58.28443  99.95514
       1  41.28285 100.19381         24.31526  -2.392678  58.28443  99.95514  24.31458 101.38669  24.28095 100.42050  58.25181  99.01318
       1  41.25009  99.23999         24.48461  -2.351806  58.25181  99.01318  24.28095 100.42050  24.24806  99.45480  58.21992  98.07172
       1  41.21807  98.28666         24.65396  -2.310920  58.21992  98.07172  24.24806  99.45480  24.21593  98.48961  58.18876  97.13077
       1  41.18680  97.33384         24.82332  -2.270020  58.18876  97.13077  24.21593  98.48961  24.18455  97.52491  58.15834  96.19033
       1  41.15628  96.38152         24.99267  -2.229107  58.15834  96.19033  24.18455  97.52491  24.15392  96.56070  58.12866  95.25039
       1  41.12649  95.42970         25.16202  -2.188180  58.12866  95.25039  24.15392  96.56070  24.12404  95.59700  58.09971  94.31096
       1  41.09745  94.47838         25.33138  -2.147240  58.09971  94.31096  24.12404  95.59700  24.09492  94.63379  58.07150  93.37203
       1  41.06916  93.52756         25.50073  -2.106286  58.07150  93.37203  24.09492  94.63379  24.06655  93.67108  58.04402  92.43361
       1  41.04161  92.57725         25.67009  -2.065319  58.04402  92.43361  24.06655  93.67108  24.03893  92.70886  58.01728  91.49569
       1  41.01480  91.62744         25.83944  -2.024338  58.01728  91.49569  24.03893  92.70886  24.01207  91.74715  57.99128  90.55829
       1  40.98873  90.67812         26.00879  -1.983344  57.99128  90.55829  24.01207  91.74715  23.98596  90.78593  57.96601  89.62138
       1  40.96342  89.72931         26.17815  -1.942337  57.96601  89.62138  23.98596  90.78593  23.96060  89.82521  57.94147  88.68498
       1  40.93884  88.78100         26.34750  -1.901316  57.94147  88.68498  23.96060  89.82521  23.93599  88.86498  57.91767  87.74909
