\wavsamp version 5.1 (Wed Apr 20 08:45:04 PDT 2005)
\processing time 15:54:23 PST 08/01/2005
\character channelID = 2
| order |x_center |y_center |   wavelength   |  angle   |   x0    |   y0    |   x1    |   y1    |   x2    |   y2    |   x3    |   y3    |
| int   |  real   |  real   |    real        |   real   |  real   |  real   |  real   |  real   |  real   |  real   |  real   |  real   |
       2  77.90093  80.48404         13.90000  -1.200000  94.87946  80.58976  60.88692  81.30181  60.92140  80.37832  94.91395  79.66628
       2  77.93344  79.56056         13.98468  -1.200000  94.91395  79.66628  60.92140  80.37832  60.95199  79.45484  94.94453  78.74280
       2  77.96217  78.63708         14.06935  -1.200000  94.94453  78.74280  60.95199  79.45484  60.97891  78.53136  94.97145  77.81931
       2  77.98733  77.71359         14.15403  -1.200000  94.97145  77.81931  60.97891  78.53136  61.00237  77.60787  94.99492  76.89583
       2  78.00915  76.79011         14.23871  -1.200000  94.99492  76.89583  61.00237  77.60787  61.02260  76.68439  95.01514  75.97235
       2  78.02784  75.86663         14.32338  -1.200000  95.01514  75.97235  61.02260  76.68439  61.03980  75.76091  95.03234  75.04886
       2  78.04360  74.94314         14.40806  -1.200000  95.03234  75.04886  61.03980  75.76091  61.05418  74.83742  95.04672  74.12538
       2  78.05664  74.01966         14.49274  -1.200000  95.04672  74.12538  61.05418  74.83742  61.06593  73.91394  95.05848  73.20190
       2  78.06716  73.09618         14.57741  -1.200000  95.05848  73.20190  61.06593  73.91394  61.07526  72.99046  95.06780  72.27841
       2  78.07535  72.17269         14.66209  -1.200000  95.06780  72.27841  61.07526  72.99046  61.08235  72.06697  95.07490  71.35493
       2  78.08139  71.24921         14.74677  -1.200000  95.07490  71.35493  61.08235  72.06697  61.08740  71.14349  95.07994  70.43145
       2  78.08548  70.32573         14.83145  -1.200000  95.07994  70.43145  61.08740  71.14349  61.09057  70.22001  95.08311  69.50797
       2  78.08778  69.40224         14.91612  -1.200000  95.08311  69.50797  61.09057  70.22001  61.09205  69.29652  95.08460  68.58448
       2  78.08849  68.47876         15.00080  -1.200000  95.08460  68.58448  61.09205  69.29652  61.09202  68.37304  95.08456  67.66100
       2  78.08775  67.55528         15.08548  -1.200000  95.08456  67.66100  61.09202  68.37304  61.09063  67.44956  95.08317  66.73752
       2  78.08575  66.63179         15.17015  -1.200000  95.08317  66.73752  61.09063  67.44956  61.08805  66.52607  95.08060  65.81403
       2  78.08264  65.70831         15.25483  -1.200000  95.08060  65.81403  61.08805  66.52607  61.08444  65.60259  95.07699  64.89055
       2  78.07857  64.78483         15.33951  -1.200000  95.07699  64.89055  61.08444  65.60259  61.07996  64.67911  95.07250  63.96707
       2  78.07370  63.86134         15.42418  -1.200000  95.07250  63.96707  61.07996  64.67911  61.07474  63.75562  95.06728  63.04358
       2  78.06817  62.93786         15.50886  -1.200000  95.06728  63.04358  61.07474  63.75562  61.06894  62.83214  95.06148  62.12010
       2  78.06213  62.01438         15.59354  -1.200000  95.06148  62.12010  61.06894  62.83214  61.06269  61.90866  95.05523  61.19662
       2  78.05571  61.09090         15.67821  -1.200000  95.05523  61.19662  61.06269  61.90866  61.05612  60.98517  95.04867  60.27313
       2  78.04904  60.16741         15.76289  -1.200000  95.04867  60.27313  61.05612  60.98517  61.04938  60.06169  95.04192  59.34965
       2  78.04224  59.24393         15.84757  -1.200000  95.04192  59.34965  61.04938  60.06169  61.04257  59.13821  95.03511  58.42617
       2  78.03545  58.32045         15.93224  -1.200000  95.03511  58.42617  61.04257  59.13821  61.03583  58.21472  95.02837  57.50268
       2  78.02878  57.39696         16.01692  -1.200000  95.02837  57.50268  61.03583  58.21472  61.02926  57.29124  95.02180  56.57920
       2  78.02235  56.47348         16.10160  -1.200000  95.02180  56.57920  61.02926  57.29124  61.02298  56.36776  95.01552  55.65572
       2  78.01625  55.55000         16.18628  -1.200000  95.01552  55.65572  61.02298  56.36776  61.01709  55.44427  95.00963  54.73223
       2  78.01060  54.62651         16.27095  -1.200000  95.00963  54.73223  61.01709  55.44427  61.01170  54.52079  95.00424  53.80875
       2  78.00549  53.70303         16.35563  -1.200000  95.00424  53.80875  61.01170  54.52079  61.00690  53.59731  94.99944  52.88527
       2  78.00102  52.77955         16.44031  -1.200000  94.99944  52.88527  61.00690  53.59731  61.00278  52.67383  94.99532  51.96178
       2  77.99727  51.85606         16.52498  -1.200000  94.99532  51.96178  61.00278  52.67383  60.99943  51.75034  94.99197  51.03830
       2  77.99434  50.93258         16.60966  -1.200000  94.99197  51.03830  60.99943  51.75034  60.99693  50.82686  94.98947  50.11482
       2  77.99230  50.00910         16.69434  -1.200000  94.98947  50.11482  60.99693  50.82686  60.99536  49.90338  94.98791  49.19133
       2  77.99122  49.08561         16.77901  -1.200000  94.98791  49.19133  60.99536  49.90338  60.99480  48.97989  94.98734  48.26785
       2  77.99118  48.16213         16.86369  -1.200000  94.98734  48.26785  60.99480  48.97989  60.99530  48.05641  94.98784  47.34437
       2  77.99225  47.23865         16.94837  -1.200000  94.98784  47.34437  60.99530  48.05641  60.99694  47.13293  94.98948  46.42088
       2  77.99447  46.31516         17.03304  -1.200000  94.98948  46.42088  60.99694  47.13293  60.99977  46.20944  94.99231  45.49740
       2  77.99792  45.39168         17.11772  -1.200000  94.99231  45.49740  60.99977  46.20944  61.00385  45.28596  94.99639  44.57392
       2  78.00264  44.46820         17.20240  -1.200000  94.99639  44.57392  61.00385  45.28596  61.00922  44.36248  95.00176  43.65043
       2  78.00868  43.54471         17.28707  -1.200000  95.00176  43.65043  61.00922  44.36248  61.01594  43.43899  95.00848  42.72695
       2  78.01608  42.62123         17.37175  -1.200000  95.00848  42.72695  61.01594  43.43899  61.02403  42.51551  95.01657  41.80347
       2  78.02487  41.69775         17.45643  -1.200000  95.01657  41.80347  61.02403  42.51551  61.03354  41.59203  95.02608  40.87998
       2  78.03510  40.77426         17.54111  -1.200000  95.02608  40.87998  61.03354  41.59203  61.04449  40.66854  95.03703  39.95650
       2  78.04679  39.85078         17.62578  -1.200000  95.03703  39.95650  61.04449  40.66854  61.05691  39.74506  95.04946  39.03302
       2  78.05996  38.92730         17.71046  -1.200000  95.04946  39.03302  61.05691  39.74506  61.07083  38.82158  95.06337  38.10953
       2  78.07462  38.00381         17.79514  -1.200000  95.06337  38.10953  61.07083  38.82158  61.08625  37.89809  95.07880  37.18605
       2  78.09081  37.08033         17.87981  -1.200000  95.07880  37.18605  61.08625  37.89809  61.10320  36.97461  95.09574  36.26257
       2  78.10851  36.15685         17.96449  -1.200000  95.09574  36.26257  61.10320  36.97461  61.12167  36.05113  95.11421  35.33908
       2  78.12775  35.23336         18.04917  -1.200000  95.11421  35.33908  61.12167  36.05113  61.14166  35.12764  95.13421  34.41560
       2  78.14851  34.30988         18.13384  -1.200000  95.13421  34.41560  61.14166  35.12764  61.16319  34.20416  95.15573  33.49212
       2  78.17079  33.38640         18.21852  -1.200000  95.15573  33.49212  61.16319  34.20416  61.18623  33.28068  95.17877  32.56863
       2  78.19458  32.46291         18.30320  -1.200000  95.17877  32.56863  61.18623  33.28068  61.21077  32.35719  95.20332  31.64515
       2  78.21988  31.53943         18.38787  -1.200000  95.20332  31.64515  61.21077  32.35719  61.23681  31.43371  95.22935  30.72167
       2  78.24665  30.61595         18.47255  -1.200000  95.22935  30.72167  61.23681  31.43371  61.26431  30.51023  95.25685  29.79818
       2  78.27487  29.69246         18.55723  -1.200000  95.25685  29.79818  61.26431  30.51023  61.29325  29.58674  95.28579  28.87470
       2  78.30452  28.76898         18.64190  -1.200000  95.28579  28.87470  61.29325  29.58674  61.32360  28.66326  95.31615  27.95122
       2  78.33557  27.84550         18.72658  -1.200000  95.31615  27.95122  61.32360  28.66326  61.35533  27.73978  95.34787  27.02773
       2  78.36797  26.92201         18.81126  -1.200000  95.34787  27.02773  61.35533  27.73978  61.38839  26.81629  95.38093  26.10425
       2  78.40167  25.99853         18.89594  -1.200000  95.38093  26.10425  61.38839  26.81629  61.42273  25.89281  95.41528  25.18077
       2  78.43665  25.07505         18.98061  -1.200000  95.41528  25.18077  61.42273  25.89281  61.45832  24.96933  95.45086  24.25728
       2  78.47283  24.15156         19.06529  -1.200000  95.45086  24.25728  61.45832  24.96933  61.49509  24.04584  95.48763  23.33380
       2  78.51017  23.22808         19.14997  -1.200000  95.48763  23.33380  61.49509  24.04584  61.53298  23.12236  95.52552  22.41032
       2  78.54860  22.30460         19.23464  -1.200000  95.52552  22.41032  61.53298  23.12236  61.57193  22.19888  95.56448  21.48683
       2  78.58806  21.38111         19.31932  -1.200000  95.56448  21.48683  61.57193  22.19888  61.61188  21.27539  95.60442  20.56335
       2  78.62847  20.45763         19.40400  -1.200000  95.60442  20.56335  61.61188  21.27539  61.65274  20.35191  95.64528  19.63987
       2  78.66976  19.53415         19.48867  -1.200000  95.64528  19.63987  61.65274  20.35191  61.69443  19.42843  95.68698  18.71638
       2  78.71184  18.61066         19.57335  -1.200000  95.68698  18.71638  61.69443  19.42843  61.73689  18.50494  95.72943  17.79290
       2  78.75464  17.68718         19.65803  -1.200000  95.72943  17.79290  61.73689  18.50494  61.78001  17.58146  95.77255  16.86942
       2  78.79807  16.76370         19.74270  -1.200000  95.77255  16.86942  61.78001  17.58146  61.82371  16.65798  95.81625  15.94593
       2  78.84202  15.84021         19.82738  -1.200000  95.81625  15.94593  61.82371  16.65798  61.86789  15.73449  95.86043  15.02245
       2  78.88640  14.91673         19.91206  -1.200000  95.86043  15.02245  61.86789  15.73449  61.91244  14.81101  95.90498  14.09897
       2  78.93110  13.99325         19.99673  -1.200000  95.90498  14.09897  61.91244  14.81101  61.95726  13.88753  95.94981  13.17548
       2  78.97601  13.06976         20.08141  -1.200000  95.94981  13.17548  61.95726  13.88753  62.00225  12.96404  95.99479  12.25200
       2  79.02103  12.14628         20.16609  -1.200000  95.99479  12.25200  62.00225  12.96404  62.04727  12.04056  96.03981  11.32852
       2  79.06603  11.22280         20.25077  -1.200000  96.03981  11.32852  62.04727  12.04056  62.09221  11.11708  96.08476  10.40504
       2  79.11089  10.29931         20.33544  -1.200000  96.08476  10.40504  62.09221  11.11708  62.13696  10.19359  96.12950   9.48155
       2  79.15548   9.37583         20.42012  -1.200000  96.12950   9.48155  62.13696  10.19359  62.18136   9.27011  96.17391   8.55807
       2  79.19967   8.45235         20.50480  -1.200000  96.17391   8.55807  62.18136   9.27011  62.22530   8.34663  96.21784   7.63459
       2  79.24332   7.52886         20.58947  -1.200000  96.21784   7.63459  62.22530   8.34663  62.26863   7.42314  96.26117   6.71110
       2  79.28629   6.60538         20.67415  -1.200000  96.26117   6.71110  62.26863   7.42314  62.31120   6.49966  96.30375   5.78762
       2  79.32843   5.68190         20.75883  -1.200000  96.30375   5.78762  62.31120   6.49966  62.35287   5.57618  96.34542   4.86414
       2  79.36960   4.75841         20.84350  -1.200000  96.34542   4.86414  62.35287   5.57618  62.39349   4.65269  96.38603   3.94065
       2  79.40962   3.83493         20.92818  -1.200000  96.38603   3.94065  62.39349   4.65269  62.43289   3.72921  96.42543   3.01717
       2  79.44835   2.91145         21.01286  -1.200000  96.42543   3.01717  62.43289   3.72921  62.47091   2.80573  96.46345   2.09369
       2  79.48562   1.98797         21.09753  -1.200000  96.46345   2.09369  62.47091   2.80573  62.50738   1.88224  96.49993   1.17020
       2  79.52126   1.06448         21.18221  -1.200000  96.49993   1.17020  62.50738   1.88224  62.54214   0.95876  96.53468   0.24672
       2  79.55509   0.14100         21.26689  -1.200000  96.53468   0.24672  62.54214   0.95876  62.57500   0.03528  96.56754  -0.67676
       3  80.40680 128.30551         19.14997  -1.200000  97.40987 128.41123  63.41732 129.12327  63.40235 128.19979  97.39489 127.48775
       3  80.38907 127.38203         19.31932  -1.200000  97.39489 127.48775  63.40235 128.19979  63.38186 127.27631  97.37441 126.56426
       3  80.36582 126.45854         19.48867  -1.200000  97.37441 126.56426  63.38186 127.27631  63.35587 126.35282  97.34841 125.64078
       3  80.33707 125.53506         19.65803  -1.200000  97.34841 125.64078  63.35587 126.35282  63.32436 125.42934  97.31690 124.71730
       3  80.30281 124.61158         19.82738  -1.200000  97.31690 124.71730  63.32436 125.42934  63.28734 124.50586  97.27988 123.79381
       3  80.26304 123.68809         19.99673  -1.200000  97.27988 123.79381  63.28734 124.50586  63.24481 123.58237  97.23735 122.87033
       3  80.21775 122.76461         20.16609  -1.200000  97.23735 122.87033  63.24481 123.58237  63.19677 122.65889  97.18931 121.94685
       3  80.16696 121.84113         20.33544  -1.200000  97.18931 121.94685  63.19677 122.65889  63.14322 121.73540  97.13576 121.02336
       3  80.11065 120.91764         20.50480  -1.200000  97.13576 121.02336  63.14322 121.73540  63.08416 120.81192  97.07670 120.09988
       3  80.04884 119.99416         20.67415  -1.200000  97.07670 120.09988  63.08416 120.81192  63.01959 119.88844  97.01213 119.17640
       3  79.98151 119.07067         20.84350  -1.200000  97.01213 119.17640  63.01959 119.88844  62.94951 118.96495  96.94205 118.25291
       3  79.90867 118.14719         21.01286  -1.200000  96.94205 118.25291  62.94951 118.96495  62.87392 118.04147  96.86646 117.32943
       3  79.83032 117.22371         21.18221  -1.200000  96.86646 117.32943  62.87392 118.04147  62.79281 117.11799  96.78535 116.40594
       3  79.74647 116.30022         21.35156  -1.200000  96.78535 116.40594  62.79281 117.11799  62.70620 116.19450  96.69874 115.48246
       3  79.65710 115.37674         21.52092  -1.200000  96.69874 115.48246  62.70620 116.19450  62.61407 115.27102  96.60662 114.55898
       3  79.56222 114.45326         21.69027  -1.200000  96.60662 114.55898  62.61407 115.27102  62.51644 114.34754  96.50898 113.63549
       1  42.46019 126.39268         19.65803  -1.200000  59.48334 126.51788  25.49080 127.22993  25.43723 126.26761  59.42977 125.55557
       1  42.40701 125.43063         19.82738  -1.200000  59.42977 125.55557  25.43723 126.26761  25.38443 125.30583  59.37697 124.59379
       1  42.35459 124.46912         19.99673  -1.200000  59.37697 124.59379  25.38443 125.30583  25.33240 124.34458  59.32494 123.63253
       1  42.30295 123.50813         20.16609  -1.200000  59.32494 123.63253  25.33240 124.34458  25.28114 123.38385  59.27368 122.67181
       1  42.25207 122.54767         20.33544  -1.200000  59.27368 122.67181  25.28114 123.38385  25.23065 122.42366  59.22320 121.71162
       1  42.20197 121.58774         20.50480  -1.200000  59.22320 121.71162  25.23065 122.42366  25.18093 121.46400  59.17348 120.75196
       1  42.15263 120.62835         20.67415  -1.200000  59.17348 120.75196  25.18093 121.46400  25.13198 120.50487  59.12453 119.79283
       1  42.10407 119.66948         20.84350  -1.200000  59.12453 119.79283  25.13198 120.50487  25.08380 119.54627  59.07635 118.83423
       1  42.05627 118.71115         21.01286  -1.200000  59.07635 118.83423  25.08380 119.54627  25.03639 118.58820  59.02894 117.87616
       1  42.00925 117.75335         21.18221  -1.200000  59.02894 117.87616  25.03639 118.58820  24.98975 117.63066  58.98230 116.91862
       1  41.96300 116.79607         21.35156  -1.200000  58.98230 116.91862  24.98975 117.63066  24.94389 116.67366  58.93643 115.96161
       1  41.91751 115.83933         21.52092  -1.200000  58.93643 115.96161  24.94389 116.67366  24.89879 115.71718  58.89133 115.00514
       1  41.87280 114.88312         21.69027  -1.200000  58.89133 115.00514  24.89879 115.71718  24.85446 114.76123  58.84700 114.04919
       1  41.82885 113.92744         21.85963  -1.200000  58.84700 114.04919  24.85446 114.76123  24.81090 113.80582  58.80344 113.09378
       1  41.78568 112.97229         22.02898  -1.200000  58.80344 113.09378  24.81090 113.80582  24.76811 112.85093  58.76065 112.13889
       1  41.74327 112.01767         22.19833  -1.200000  58.76065 112.13889  24.76811 112.85093  24.72609 111.89658  58.71863 111.18454
       1  41.70164 111.06358         22.36769  -1.200000  58.71863 111.18454  24.72609 111.89658  24.68484 110.94275  58.67738 110.23071
       1  41.66077 110.11002         22.53704  -1.200000  58.67738 110.23071  24.68484 110.94275  24.64436 109.98946  58.63690 109.27742
       1  41.62068 109.15699         22.70639  -1.200000  58.63690 109.27742  24.64436 109.98946  24.60465 109.03670  58.59719 108.32466
       1  41.58136 108.20450         22.87575  -1.200000  58.59719 108.32466  24.60465 109.03670  24.56571 108.08447  58.55825 107.37243
       1  41.54280 107.25253         23.04510  -1.200000  58.55825 107.37243  24.56571 108.08447  24.52754 107.13277  58.52009 106.42072
       1  41.50502 106.30109         23.21446  -1.200000  58.52009 106.42072  24.52754 107.13277  24.49014 106.18160  58.48269 105.46955
       1  41.46800 105.35019         23.38381  -1.200000  58.48269 105.46955  24.49014 106.18160  24.45351 105.23096  58.44606 104.51891
       1  41.43176 104.39982         23.55316  -1.200000  58.44606 104.51891  24.45351 105.23096  24.41766 104.28085  58.41020 103.56881
       1  41.39629 103.44997         23.72252  -1.200000  58.41020 103.56881  24.41766 104.28085  24.38257 103.33127  58.37511 102.61923
       1  41.36158 102.50066         23.89187  -1.200000  58.37511 102.61923  24.38257 103.33127  24.34825 102.38222  58.34079 101.67018
       1  41.32765 101.55188         24.06122  -1.200000  58.34079 101.67018  24.34825 102.38222  24.31470 101.43371  58.30724 100.72166
       1  41.29448 100.60362         24.23058  -1.200000  58.30724 100.72166  24.31470 101.43371  24.28192 100.48572  58.27446  99.77368
       1  41.26209  99.65590         24.39993  -1.200000  58.27446  99.77368  24.28192 100.48572  24.24991  99.53826  58.24245  98.82622
       1  41.23047  98.70871         24.56929  -1.200000  58.24245  98.82622  24.24991  99.53826  24.21867  98.59134  58.21121  97.87930
       1  41.19961  97.76205         24.73864  -1.200000  58.21121  97.87930  24.21867  98.59134  24.18820  97.64494  58.18074  96.93290
       1  41.16953  96.81592         24.90799  -1.200000  58.18074  96.93290  24.18820  97.64494  24.15850  96.69908  58.15105  95.98704
       1  41.14021  95.87033         25.07735  -1.200000  58.15105  95.98704  24.15850  96.69908  24.12957  95.75375  58.12212  95.04170
       1  41.11167  94.92526         25.24670  -1.200000  58.12212  95.04170  24.12957  95.75375  24.10142  94.80894  58.09396  94.09690
       1  41.08390  93.98072         25.41605  -1.200000  58.09396  94.09690  24.10142  94.80894  24.07403  93.86467  58.06657  93.15263
       1  41.05689  93.03672         25.58541  -1.200000  58.06657  93.15263  24.07403  93.86467  24.04741  92.92093  58.03995  92.20889
       1  41.03066  92.09324         25.75476  -1.200000  58.03995  92.20889  24.04741  92.92093  24.02156  91.97772  58.01410  91.26568
       1  41.00519  91.15029         25.92412  -1.200000  58.01410  91.26568  24.02156  91.97772  23.99648  91.03504  57.98902  90.32300
       1  40.98050  90.20788         26.09347  -1.200000  57.98902  90.32300  23.99648  91.03504  23.97217  90.09289  57.96471  89.38085
