\wavsamp version 5.1 (Wed Apr 20 08:45:04 PDT 2005)
\processing time 13:30:49 PST 04/26/2005
\character channelID = 0
| order |x_center |y_center |   wavelength   |  angle   |   x0    |   y0    |   x1    |   y1    |   x2    |   y2    |   x3    |   y3    |
| int   |  real   |  real   |    real        |   real   |  real   |  real   |  real   |  real   |  real   |  real   |  real   |  real   |
       2  62.26066  80.25328          5.12652  -2.400000  79.91611  80.00265  44.66928  81.47993  44.60532  80.50392  79.85216  79.02664
       2  62.19695  79.27727          5.15676  -2.400000  79.85216  79.02664  44.60532  80.50392  44.54187  79.52791  79.78870  78.05063
       2  62.13374  78.30126          5.18700  -2.400000  79.78870  78.05063  44.54187  79.52791  44.47891  78.55190  79.72574  77.07462
       2  62.07103  77.32526          5.21725  -2.400000  79.72574  77.07462  44.47891  78.55190  44.41645  77.57589  79.66328  76.09861
       2  62.00882  76.34925          5.24749  -2.400000  79.66328  76.09861  44.41645  77.57589  44.35449  76.59988  79.60132  75.12260
       2  61.94711  75.37324          5.27773  -2.400000  79.60132  75.12260  44.35449  76.59988  44.29302  75.62387  79.53986  74.14659
       2  61.88590  74.39723          5.30797  -2.400000  79.53986  74.14659  44.29302  75.62387  44.23206  74.64786  79.47889  73.17058
       2  61.82518  73.42122          5.33821  -2.400000  79.47889  73.17058  44.23206  74.64786  44.17160  73.67186  79.41843  72.19458
       2  61.76497  72.44521          5.36846  -2.400000  79.41843  72.19458  44.17160  73.67186  44.11163  72.69585  79.35846  71.21857
       2  61.70525  71.46920          5.39870  -2.400000  79.35846  71.21857  44.11163  72.69585  44.05216  71.71984  79.29900  70.24256
       2  61.64603  70.49319          5.42894  -2.400000  79.29900  70.24256  44.05216  71.71984  43.99320  70.74383  79.24003  69.26655
       2  61.58732  69.51718          5.45918  -2.400000  79.24003  69.26655  43.99320  70.74383  43.93473  69.76782  79.18156  68.29054
       2  61.52910  68.54117          5.48942  -2.400000  79.18156  68.29054  43.93473  69.76782  43.87676  68.79181  79.12359  67.31453
       2  61.47138  67.56517          5.51967  -2.400000  79.12359  67.31453  43.87676  68.79181  43.81929  67.81580  79.06612  66.33852
       2  61.41415  66.58916          5.54991  -2.400000  79.06612  66.33852  43.81929  67.81580  43.76231  66.83979  79.00915  65.36251
       2  61.35743  65.61315          5.58015  -2.400000  79.00915  65.36251  43.76231  66.83979  43.70584  65.86378  78.95267  64.38650
       2  61.30121  64.63714          5.61039  -2.400000  78.95267  64.38650  43.70584  65.86378  43.64987  64.88777  78.89670  63.41049
       2  61.24548  63.66113          5.64063  -2.400000  78.89670  63.41049  43.64987  64.88777  43.59439  63.91177  78.84122  62.43449
       2  61.19026  62.68512          5.67088  -2.400000  78.84122  62.43449  43.59439  63.91177  43.53941  62.93576  78.78625  61.45848
       2  61.13553  61.70911          5.70112  -2.400000  78.78625  61.45848  43.53941  62.93576  43.48494  61.95975  78.73177  60.48247
       2  61.08130  60.73310          5.73136  -2.400000  78.73177  60.48247  43.48494  61.95975  43.43096  60.98374  78.67779  59.50646
       2  61.02757  59.75709          5.76160  -2.400000  78.67779  59.50646  43.43096  60.98374  43.37748  60.00773  78.62431  58.53045
       2  60.97434  58.78108          5.79184  -2.400000  78.62431  58.53045  43.37748  60.00773  43.32450  59.03172  78.57133  57.55444
       2  60.92161  57.80508          5.82209  -2.400000  78.57133  57.55444  43.32450  59.03172  43.27202  58.05571  78.51885  56.57843
       2  60.86938  56.82907          5.85233  -2.400000  78.51885  56.57843  43.27202  58.05571  43.22003  57.07970  78.46687  55.60242
       2  60.81764  55.85306          5.88257  -2.400000  78.46687  55.60242  43.22003  57.07970  43.16855  56.10369  78.41538  54.62641
       2  60.76641  54.87705          5.91281  -2.400000  78.41538  54.62641  43.16855  56.10369  43.11756  55.12768  78.36440  53.65040
       2  60.71567  53.90104          5.94305  -2.400000  78.36440  53.65040  43.11756  55.12768  43.06708  54.15168  78.31391  52.67440
       2  60.66544  52.92503          5.97330  -2.400000  78.31391  52.67440  43.06708  54.15168  43.01709  53.17567  78.26392  51.69839
       2  60.61570  51.94902          6.00354  -2.400000  78.26392  51.69839  43.01709  53.17567  42.96760  52.19966  78.21443  50.72238
       2  60.56646  50.97301          6.03378  -2.400000  78.21443  50.72238  42.96760  52.19966  42.91861  51.22365  78.16544  49.74637
       2  60.51772  49.99700          6.06402  -2.400000  78.16544  49.74637  42.91861  51.22365  42.87012  50.24764  78.11695  48.77036
       2  60.46948  49.02099          6.09426  -2.400000  78.11695  48.77036  42.87012  50.24764  42.82213  49.27163  78.06896  47.79435
       2  60.42174  48.04499          6.12451  -2.400000  78.06896  47.79435  42.82213  49.27163  42.77463  48.29562  78.02147  46.81834
       2  60.37449  47.06898          6.15475  -2.400000  78.02147  46.81834  42.77463  48.29562  42.72764  47.31961  77.97447  45.84233
       2  60.32775  46.09297          6.18499  -2.400000  77.97447  45.84233  42.72764  47.31961  42.68115  46.34360  77.92798  44.86632
       2  60.28150  45.11696          6.21523  -2.400000  77.92798  44.86632  42.68115  46.34360  42.63515  45.36759  77.88198  43.89031
       2  60.23575  44.14095          6.24547  -2.400000  77.88198  43.89031  42.63515  45.36759  42.58965  44.39159  77.83648  42.91431
       2  60.19051  43.16494          6.27572  -2.400000  77.83648  42.91431  42.58965  44.39159  42.54465  43.41558  77.79149  41.93830
       2  60.14576  42.18893          6.30596  -2.400000  77.79149  41.93830  42.54465  43.41558  42.50015  42.43957  77.74699  40.96229
       2  60.10151  41.21292          6.33620  -2.400000  77.74699  40.96229  42.50015  42.43957  42.45615  41.46356  77.70299  39.98628
       2  60.05776  40.23691          6.36644  -2.400000  77.70299  39.98628  42.45615  41.46356  42.41265  40.48755  77.65948  39.01027
       2  60.01450  39.26090          6.39668  -2.400000  77.65948  39.01027  42.41265  40.48755  42.36965  39.51154  77.61648  38.03426
       2  59.97175  38.28490          6.42693  -2.400000  77.61648  38.03426  42.36965  39.51154  42.32714  38.53553  77.57398  37.05825
       2  59.92950  37.30889          6.45717  -2.400000  77.57398  37.05825  42.32714  38.53553  42.28514  37.55952  77.53197  36.08224
       2  59.88774  36.33288          6.48741  -2.400000  77.53197  36.08224  42.28514  37.55952  42.24363  36.58351  77.49047  35.10623
       2  59.84648  35.35687          6.51765  -2.400000  77.49047  35.10623  42.24363  36.58351  42.20262  35.60750  77.44946  34.13022
       2  59.80572  34.38086          6.54789  -2.400000  77.44946  34.13022  42.20262  35.60750  42.16212  34.63150  77.40895  33.15422
       2  59.76547  33.40485          6.57814  -2.400000  77.40895  33.15422  42.16212  34.63150  42.12211  33.65549  77.36894  32.17821
       2  59.72571  32.42884          6.60838  -2.400000  77.36894  32.17821  42.12211  33.65549  42.08260  32.67948  77.32943  31.20220
       2  59.68644  31.45283          6.63862  -2.400000  77.32943  31.20220  42.08260  32.67948  42.04358  31.70347  77.29042  30.22619
       2  59.64768  30.47682          6.66886  -2.400000  77.29042  30.22619  42.04358  31.70347  42.00507  30.72746  77.25190  29.25018
       2  59.60942  29.50081          6.69910  -2.400000  77.25190  29.25018  42.00507  30.72746  41.96706  29.75145  77.21389  28.27417
       2  59.57165  28.52481          6.72935  -2.400000  77.21389  28.27417  41.96706  29.75145  41.92954  28.77544  77.17638  27.29816
       2  59.53439  27.54880          6.75959  -2.400000  77.17638  27.29816  41.92954  28.77544  41.89253  27.79943  77.13936  26.32215
       2  59.49762  26.57279          6.78983  -2.400000  77.13936  26.32215  41.89253  27.79943  41.85601  26.82342  77.10284  25.34614
       2  59.46135  25.59678          6.82007  -2.400000  77.10284  25.34614  41.85601  26.82342  41.81999  25.84741  77.06682  24.37013
       2  59.42559  24.62077          6.85031  -2.400000  77.06682  24.37013  41.81999  25.84741  41.78447  24.87141  77.03130  23.39413
       2  59.39032  23.64476          6.88056  -2.400000  77.03130  23.39413  41.78447  24.87141  41.74945  23.89540  76.99628  22.41812
       2  59.35554  22.66875          6.91080  -2.400000  76.99628  22.41812  41.74945  23.89540  41.71493  22.91939  76.96176  21.44211
       2  59.32127  21.69274          6.94104  -2.400000  76.96176  21.44211  41.71493  22.91939  41.68091  21.94338  76.92774  20.46610
       2  59.28750  20.71673          6.97128  -2.400000  76.92774  20.46610  41.68091  21.94338  41.64738  20.96737  76.89422  19.49009
       2  59.25422  19.74072          7.00152  -2.400000  76.89422  19.49009  41.64738  20.96737  41.61436  19.99136  76.86119  18.51408
       2  59.22145  18.76472          7.03177  -2.400000  76.86119  18.51408  41.61436  19.99136  41.58183  19.01535  76.82866  17.53807
       2  59.18917  17.78871          7.06201  -2.400000  76.82866  17.53807  41.58183  19.01535  41.54980  18.03934  76.79664  16.56206
       2  59.15739  16.81270          7.09225  -2.400000  76.79664  16.56206  41.54980  18.03934  41.51828  17.06333  76.76511  15.58605
       2  59.12612  15.83669          7.12249  -2.400000  76.76511  15.58605  41.51828  17.06333  41.48725  16.08732  76.73408  14.61004
       2  59.09534  14.86068          7.15273  -2.400000  76.73408  14.61004  41.48725  16.08732  41.45672  15.11132  76.70355  13.63404
       2  59.06505  13.88467          7.18298  -2.400000  76.70355  13.63404  41.45672  15.11132  41.42668  14.13531  76.67352  12.65803
       2  59.03527  12.90866          7.21322  -2.400000  76.67352  12.65803  41.42668  14.13531  41.39715  13.15930  76.64398  11.68202
       2  59.00599  11.93265          7.24346  -2.400000  76.64398  11.68202  41.39715  13.15930  41.36812  12.18329  76.61495  10.70601
       2  58.97720  10.95664          7.27370  -2.400000  76.61495  10.70601  41.36812  12.18329  41.33958  11.20728  76.58642   9.73000
       2  58.94892   9.98063          7.30394  -2.400000  76.58642   9.73000  41.33958  11.20728  41.31155  10.23127  76.55838   8.75399
       2  58.92113   9.00463          7.33419  -2.400000  76.55838   8.75399  41.31155  10.23127  41.28401   9.25526  76.53084   7.77798
       2  58.89384   8.02862          7.36443  -2.400000  76.53084   7.77798  41.28401   9.25526  41.25697   8.27925  76.50380   6.80197
       2  58.86706   7.05261          7.39467  -2.400000  76.50380   6.80197  41.25697   8.27925  41.23043   7.30324  76.47727   5.82596
       2  58.84077   6.07660          7.42491  -2.400000  76.47727   5.82596  41.23043   7.30324  41.20439   6.32723  76.45122   4.84995
       2  58.81498   5.10059          7.45515  -2.400000  76.45122   4.84995  41.20439   6.32723  41.17885   5.35123  76.42568   3.87395
       2  58.78968   4.12458          7.48540  -2.400000  76.42568   3.87395  41.17885   5.35123  41.15381   4.37522  76.40064   2.89794
       2  58.76489   3.14857          7.51564  -2.400000  76.40064   2.89794  41.15381   4.37522  41.12926   3.39921  76.37610   1.92193
       2  58.74060   2.17256          7.54588  -2.400000  76.37610   1.92193  41.12926   3.39921  41.10522   2.42320  76.35205   0.94592
       2  58.71680   1.19655          7.57612  -2.400000  76.35205   0.94592  41.10522   2.42320  41.08167   1.44719  76.32851  -0.03009
       2  58.69350   0.22054          7.60636  -2.400000  76.32851  -0.03009  41.08167   1.44719  41.05863   0.47118  76.30546  -1.00610
       2  58.67071  -0.75546          7.63661  -2.400000  76.30546  -1.00610  41.05863   0.47118  41.03608  -0.50483  76.28291  -1.98211
       3  64.23857 127.03808          7.33419  -2.400000  81.89172 126.54345  46.64489 128.02073  46.58575 127.53272  81.83258 126.05544
       3  64.18008 126.55008          7.36443  -2.400000  81.83258 126.05544  46.58575 127.53272  46.52792 127.04472  81.77475 125.56744
       3  64.12291 126.06208          7.39467  -2.400000  81.77475 125.56744  46.52792 127.04472  46.47139 126.55672  81.71823 125.07944
       3  64.06704 125.57407          7.42491  -2.400000  81.71823 125.07944  46.47139 126.55672  46.41618 126.06871  81.66301 124.59143
       3  64.01248 125.08607          7.45515  -2.400000  81.66301 124.59143  46.41618 126.06871  46.36228 125.58071  81.60911 124.10343
       3  63.95923 124.59807          7.48540  -2.400000  81.60911 124.10343  46.36228 125.58071  46.30968 125.09271  81.55652 123.61543
       3  63.90729 124.11006          7.51564  -2.400000  81.55652 123.61543  46.30968 125.09271  46.25840 124.60470  81.50523 123.12742
       3  63.85666 123.62206          7.54588  -2.400000  81.50523 123.12742  46.25840 124.60470  46.20842 124.11670  81.45526 122.63942
       3  63.80734 123.13406          7.57612  -2.400000  81.45526 122.63942  46.20842 124.11670  46.15975 123.62870  81.40659 122.15142
       3  63.75933 122.64605          7.60636  -2.400000  81.40659 122.15142  46.15975 123.62870  46.11240 123.14069  81.35923 121.66341
       3  63.71262 122.15805          7.63661  -2.400000  81.35923 121.66341  46.11240 123.14069  46.06635 122.65269  81.31318 121.17541
       3  63.66723 121.67005          7.66685  -2.400000  81.31318 121.17541  46.06635 122.65269  46.02161 122.16469  81.26844 120.68741
       3  63.62314 121.18204          7.69709  -2.400000  81.26844 120.68741  46.02161 122.16469  45.97818 121.67668  81.22501 120.19940
       3  63.58037 120.69404          7.72733  -2.400000  81.22501 120.19940  45.97818 121.67668  45.93605 121.18868  81.18289 119.71140
       3  63.53890 120.20604          7.75757  -2.400000  81.18289 119.71140  45.93605 121.18868  45.89524 120.70068  81.14207 119.22340
       3  63.49874 119.71803          7.78782  -2.400000  81.14207 119.22340  45.89524 120.70068  45.85574 120.21267  81.10257 118.73539
       3  63.45989 119.23003          7.81806  -2.400000  81.10257 118.73539  45.85574 120.21267  45.81754 119.72467  81.06437 118.24739
       3  63.42235 118.74203          7.84830  -2.400000  81.06437 118.24739  45.81754 119.72467  45.78065 119.23667  81.02749 117.75939
       3  63.38612 118.25402          7.87854  -2.400000  81.02749 117.75939  45.78065 119.23667  45.74508 118.74866  80.99191 117.27138
       3  63.35120 117.76602          7.90878  -2.400000  80.99191 117.27138  45.74508 118.74866  45.71081 118.26066  80.95764 116.78338
       3  63.31758 117.27802          7.93903  -2.400000  80.95764 116.78338  45.71081 118.26066  45.67785 117.77266  80.92468 116.29538
       3  63.28528 116.79001          7.96927  -2.400000  80.92468 116.29538  45.67785 117.77266  45.64620 117.28465  80.89303 115.80737
       3  63.25428 116.30201          7.99951  -2.400000  80.89303 115.80737  45.64620 117.28465  45.61586 116.79665  80.86269 115.31937
       3  63.22460 115.81401          8.02975  -2.400000  80.86269 115.31937  45.61586 116.79665  45.58683 116.30865  80.83366 114.83137
       3  63.19622 115.32600          8.05999  -2.400000  80.83366 114.83137  45.58683 116.30865  45.55910 115.82064  80.80594 114.34336
       3  63.16915 114.83800          8.09024  -2.400000  80.80594 114.34336  45.55910 115.82064  45.53269 115.33264  80.77952 113.85536
       3  63.14339 114.35000          8.12048  -2.400000  80.77952 113.85536  45.53269 115.33264  45.50759 114.84464  80.75442 113.36736
       3  63.11894 113.86199          8.15072  -2.400000  80.75442 113.36736  45.50759 114.84464  45.48379 114.35663  80.73062 112.87935
       3  63.09580 113.37399          8.18096  -2.400000  80.73062 112.87935  45.48379 114.35663  45.46130 113.86863  80.70814 112.39135
       3  63.07397 112.88599          8.21120  -2.400000  80.70814 112.39135  45.46130 113.86863  45.44013 113.38062  80.68696 111.90334
       3  63.05344 112.39798          8.24145  -2.400000  80.68696 111.90334  45.44013 113.38062  45.42026 112.89262  80.66709 111.41534
       3  63.03423 111.90998          8.27169  -2.400000  80.66709 111.41534  45.42026 112.89262  45.40170 112.40462  80.64853 110.92734
       3  63.01632 111.42198          8.30193  -2.400000  80.64853 110.92734  45.40170 112.40462  45.38445 111.91661  80.63128 110.43933
       3  62.99973 110.93397          8.33217  -2.400000  80.63128 110.43933  45.38445 111.91661  45.36850 111.42861  80.61534 109.95133
       3  62.98444 110.44597          8.36241  -2.400000  80.61534 109.95133  45.36850 111.42861  45.35387 110.94061  80.60070 109.46333
       3  62.97046 109.95797          8.39266  -2.400000  80.60070 109.46333  45.35387 110.94061  45.34055 110.45260  80.58738 108.97532
       3  62.95779 109.46996          8.42290  -2.400000  80.58738 108.97532  45.34055 110.45260  45.32853 109.96460  80.57537 108.48732
       3  62.94643 108.98196          8.45314  -2.400000  80.57537 108.48732  45.32853 109.96460  45.31783 109.47660  80.56466 107.99932
       3  62.93638 108.49396          8.48338  -2.400000  80.56466 107.99932  45.31783 109.47660  45.30843 108.98859  80.55526 107.51131
       3  62.92764 108.00595          8.51362  -2.400000  80.55526 107.51131  45.30843 108.98859  45.30034 108.50059  80.54718 107.02331
       3  62.92021 107.51795          8.54387  -2.400000  80.54718 107.02331  45.30034 108.50059  45.29357 108.01259  80.54040 106.53531
       3  62.91408 107.02995          8.57411  -2.400000  80.54040 106.53531  45.29357 108.01259  45.28810 107.52458  80.53493 106.04730
       3  62.90927 106.54194          8.60435  -2.400000  80.53493 106.04730  45.28810 107.52458  45.28394 107.03658  80.53077 105.55930
       3  62.90576 106.05394          8.63459  -2.400000  80.53077 105.55930  45.28394 107.03658  45.28108 106.54858  80.52792 105.07130
       3  62.90357 105.56594          8.66483  -2.400000  80.52792 105.07130  45.28108 106.54858  45.27954 106.06057  80.52638 104.58329
       1  21.16240 126.27801          7.48540  -1.700000  38.81356 126.24176   3.55131 127.28832   3.51123 126.31426  38.77348 125.26770
       1  21.12231 125.30395          7.54588  -1.700000  38.77348 125.26770   3.51123 126.31426   3.47113 125.34019  38.73338 124.29364
       1  21.08219 124.32988          7.60636  -1.700000  38.73338 124.29364   3.47113 125.34019   3.43100 124.36613  38.69325 123.31957
       1  21.04206 123.35582          7.66685  -1.700000  38.69325 123.31957   3.43100 124.36613   3.39085 123.39207  38.65311 122.34551
       1  21.00190 122.38176          7.72733  -1.700000  38.65311 122.34551   3.39085 123.39207   3.35068 122.41801  38.61293 121.37145
       1  20.96172 121.40770          7.78781  -1.700000  38.61293 121.37145   3.35068 122.41801   3.31049 121.44395  38.57274 120.39739
       1  20.92151 120.43364          7.84830  -1.700000  38.57274 120.39739   3.31049 121.44395   3.27027 120.46988  38.53253 119.42332
       1  20.88128 119.45957          7.90878  -1.700000  38.53253 119.42332   3.27027 120.46988   3.23004 119.49582  38.49229 118.44926
       1  20.84103 118.48551          7.96926  -1.700000  38.49229 118.44926   3.23004 119.49582   3.18977 118.52176  38.45202 117.47520
       1  20.80076 117.51145          8.02975  -1.700000  38.45202 117.47520   3.18977 118.52176   3.14949 117.54770  38.41174 116.50114
       1  20.76046 116.53739          8.09023  -1.700000  38.41174 116.50114   3.14949 117.54770   3.10918 116.57364  38.37143 115.52708
       1  20.72014 115.56332          8.15072  -1.700000  38.37143 115.52708   3.10918 116.57364   3.06885 115.59957  38.33110 114.55301
       1  20.67980 114.58926          8.21120  -1.700000  38.33110 114.55301   3.06885 115.59957   3.02850 114.62551  38.29075 113.57895
       1  20.63944 113.61520          8.27168  -1.700000  38.29075 113.57895   3.02850 114.62551   2.98812 113.65145  38.25037 112.60489
