\wavsamp version 5.1 (Wed Apr 20 08:45:04 PDT 2005)
\processing time 18:54:11 PST 11/05/2008
\character channelID = 3
| order |x_center |y_center |   wavelength   |  angle   |   x0    |   y0    |   x1    |   y1    |   x2    |   y2    |   x3    |   y3    |
| int   |  real   |  real   |    real        |   real   |  real   |  real   |  real   |  real   |  real   |  real   |  real   |  real   |
      20   7.32125   0.42655         18.75110  -1.896856   9.65568  -0.12640   4.99158   0.02833   4.98673   0.97952   9.65085   0.82531
      20   7.31624   1.37895         18.76673  -1.890428   9.65085   0.82531   4.98673   0.97952   4.98153   1.93261   9.64567   1.77893
      20   7.31088   2.33326         18.78238  -1.884001   9.64567   1.77893   4.98153   1.93261   4.97600   2.88761   9.64015   2.73445
      20   7.30518   3.28948         18.79804  -1.877575   9.64015   2.73445   4.97600   2.88761   4.97012   3.84452   9.63429   3.69188
      20   7.29914   4.24760         18.81371  -1.871150   9.63429   3.69188   4.97012   3.84452   4.96389   4.80334   9.62808   4.65123
      20   7.29275   5.20764         18.82939  -1.864727   9.62808   4.65123   4.96389   4.80334   4.95732   5.76408   9.62153   5.61249
      20   7.28601   6.16960         18.84509  -1.858305   9.62153   5.61249   4.95732   5.76408   4.95041   6.72674   9.61463   6.57567
      20   7.27893   7.13348         18.86080  -1.851885   9.61463   6.57567   4.95041   6.72674   4.94314   7.69132   9.60738   7.54077
      20   7.27150   8.09929         18.87652  -1.845465   9.60738   7.54077   4.94314   7.69132   4.93553   8.65783   9.59978   8.50780
      20   7.26372   9.06702         18.89226  -1.839048   9.59978   8.50780   4.93553   8.65783   4.92756   9.62626   9.59184   9.47676
      20   7.25559  10.03669         18.90801  -1.832631   9.59184   9.47676   4.92756   9.62626   4.91925  10.59663   9.58354  10.44766
      20   7.24711  11.00829         18.92378  -1.826217   9.58354  10.44766   4.91925  10.59663   4.91059  11.56894   9.57489  11.42049
      20   7.23828  11.98183         18.93955  -1.819804   9.57489  11.42049   4.91059  11.56894   4.90157  12.54319   9.56589  12.39526
      20   7.22910  12.95731         18.95534  -1.813393   9.56589  12.39526   4.90157  12.54319   4.89220  13.51939   9.55654  13.37197
      20   7.21956  13.93474         18.97114  -1.806984   9.55654  13.37197   4.89220  13.51939   4.88248  14.49753   9.54684  14.35064
      20   7.20967  14.91412         18.98696  -1.800576   9.54684  14.35064   4.88248  14.49753   4.87240  15.47762   9.53678  15.33125
      20   7.19942  15.89545         19.00279  -1.794171   9.53678  15.33125   4.87240  15.47762   4.86197  16.45967   9.52636  16.31382
      20   7.18882  16.87873         19.01863  -1.787768   9.52636  16.31382   4.86197  16.45967   4.85119  17.44367   9.51559  17.29834
      20   7.17786  17.86398         19.03449  -1.781366   9.51559  17.29834   4.85119  17.44367   4.84004  18.42964   9.50446  18.28483
      20   7.16655  18.85119         19.05036  -1.774967   9.50446  18.28483   4.84004  18.42964   4.82854  19.41757   9.49297  19.27328
      20   7.15487  19.84036         19.06624  -1.768570   9.49297  19.27328   4.82854  19.41757   4.81668  20.40747   9.48113  20.26371
      20   7.14284  20.83151         19.08213  -1.762175   9.48113  20.26371   4.81668  20.40747   4.80445  21.39934   9.46892  21.25610
      20   7.13044  21.82463         19.09804  -1.755783   9.46892  21.25610   4.80445  21.39934   4.79187  22.39319   9.45636  22.25047
      20   7.11769  22.81973         19.11396  -1.749393   9.45636  22.25047   4.79187  22.39319   4.77893  23.38902   9.44343  23.24682
      20   7.10457  23.81681         19.12990  -1.743005   9.44343  23.24682   4.77893  23.38902   4.76562  24.38684   9.43014  24.24515
      20   7.09109  24.81588         19.14585  -1.736620   9.43014  24.24515   4.76562  24.38684   4.75195  25.38663   9.41648  25.24547
      20   7.07725  25.81693         19.16181  -1.730238   9.41648  25.24547   4.75195  25.38663   4.73792  26.38842   9.40247  26.24778
      20   7.06304  26.81998         19.17778  -1.723858   9.40247  26.24778   4.73792  26.38842   4.72352  27.39221   9.38808  27.25208
      20   7.04847  27.82502         19.19377  -1.717481   9.38808  27.25208   4.72352  27.39221   4.70876  28.39799   9.37334  28.25838
      20   7.03353  28.83206         19.20977  -1.711107   9.37334  28.25838   4.70876  28.39799   4.69363  29.40577   9.35822  29.26668
      20   7.01822  29.84110         19.22579  -1.704736   9.35822  29.26668   4.69363  29.40577   4.67813  30.41555   9.34274  30.27699
      20   7.00255  30.85215         19.24181  -1.698367   9.34274  30.27699   4.67813  30.41555   4.66226  31.42735   9.32688  31.28930
      20   6.98650  31.86521         19.25786  -1.692002   9.32688  31.28930   4.66226  31.42735   4.64602  32.44116   9.31066  32.30362
      20   6.97009  32.88028         19.27391  -1.685640   9.31066  32.30362   4.64602  32.44116   4.62942  33.45698   9.29407  33.31996
      20   6.95330  33.89737         19.28998  -1.679281   9.29407  33.31996   4.62942  33.45698   4.61244  34.47482   9.27711  34.33832
      20   6.93614  34.91648         19.30606  -1.672925   9.27711  34.33832   4.61244  34.47482   4.59509  35.49468   9.25977  35.35870
      20   6.91861  35.93762         19.32216  -1.666573   9.25977  35.35870   4.59509  35.49468   4.57736  36.51657   9.24206  36.38111
      20   6.90071  36.96078         19.33826  -1.660224   9.24206  36.38111   4.57736  36.51657   4.55926  37.54049   9.22398  37.40555
      20   6.88243  37.98598         19.35439  -1.653878   9.22398  37.40555   4.55926  37.54049   4.54079  38.56645   9.20552  38.43202
      20   6.86378  39.01321         19.37052  -1.647536   9.20552  38.43202   4.54079  38.56645   4.52194  39.59444   9.18669  39.46053
      20   6.84475  40.04248         19.38667  -1.641197   9.18669  39.46053   4.52194  39.59444   4.50272  40.62447   9.16748  40.49108
      20   6.82534  41.07379         19.40283  -1.634863   9.16748  40.49108   4.50272  40.62447   4.48311  41.65655   9.14789  41.52367
      20   6.80556  42.10715         19.41901  -1.628531   9.14789  41.52367   4.48311  41.65655   4.46313  42.69068   9.12792  42.55831
      20   6.78539  43.14256         19.43520  -1.622204   9.12792  42.55831   4.46313  42.69068   4.44277  43.72686   9.10757  43.59500
      20   6.76485  44.18003         19.45140  -1.615881   9.10757  43.59500   4.44277  43.72686   4.42203  44.76509   9.08684  44.63375
      20   6.74392  45.21955         19.46762  -1.609562   9.08684  44.63375   4.42203  44.76509   4.40090  45.80538   9.06573  45.67456
      20   6.72261  46.26113         19.48385  -1.603246   9.06573  45.67456   4.40090  45.80538   4.37940  46.84774   9.04424  46.71743
      20   6.70092  47.30478         19.50009  -1.596935   9.04424  46.71743   4.37940  46.84774   4.35751  47.89217   9.02237  47.76237
      20   6.67885  48.35049         19.51635  -1.590628   9.02237  47.76237   4.35751  47.89217   4.33523  48.93866   9.00011  48.80938
      20   6.65639  49.39828         19.53262  -1.584325   9.00011  48.80938   4.33523  48.93866   4.31257  49.98723   8.97746  49.85846
      20   6.63355  50.44815         19.54890  -1.578027   8.97746  49.85846   4.31257  49.98723   4.28953  51.03788   8.95443  50.90962
      20   6.61032  51.50009         19.56520  -1.571733   8.95443  50.90962   4.28953  51.03788   4.26610  52.09061   8.93102  51.96286
      20   6.58670  52.55412         19.58151  -1.565444   8.93102  51.96286   4.26610  52.09061   4.24228  53.14542   8.90721  53.01819
      20   6.56269  53.61024         19.59783  -1.559159   8.90721  53.01819   4.24228  53.14542   4.21807  54.20233   8.88302  54.07561
      20   6.53829  54.66844         19.61417  -1.552879   8.88302  54.07561   4.21807  54.20233   4.19347  55.26133   8.85843  55.13512
      20   6.51351  55.72875         19.63053  -1.546603   8.85843  55.13512   4.19347  55.26133   4.16848  56.32242   8.83346  56.19672
      20   6.48833  56.79115         19.64689  -1.540333   8.83346  56.19672   4.16848  56.32242   4.14310  57.38562   8.80809  57.26043
      20   6.46276  57.85565         19.66327  -1.534067   8.80809  57.26043   4.14310  57.38562   4.11733  58.45092   8.78233  58.32624
      20   6.43680  58.92226         19.67966  -1.527806   8.78233  58.32624   4.11733  58.45092   4.09116  59.51833   8.75618  59.39416
      20   6.41044  59.99098         19.69607  -1.521551   8.75618  59.39416   4.09116  59.51833   4.06460  60.58785   8.72963  60.46419
      20   6.38369  61.06181         19.71249  -1.515300   8.72963  60.46419   4.06460  60.58785   4.03765  61.65948   8.70269  61.53633
      20   6.35654  62.13476         19.72892  -1.509055   8.70269  61.53633   4.03765  61.65948   4.01029  62.73324   8.67535  62.61060
      20   6.32900  63.20983         19.74537  -1.502815   8.67535  62.61060   4.01029  62.73324   3.98254  63.80912   8.64761  63.68699
      20   6.30105  64.28703         19.76183  -1.496581   8.64761  63.68699   3.98254  63.80912   3.95439  64.88713   8.61948  64.76550
      20   6.27271  65.36636         19.77831  -1.490352   8.61948  64.76550   3.95439  64.88713   3.92585  65.96727   8.59094  65.84615
      20   6.24397  66.44782         19.79480  -1.484129   8.59094  65.84615   3.92585  65.96727   3.89690  67.04954   8.56201  66.92893
      20   6.21483  67.53141         19.81130  -1.477911   8.56201  66.92893   3.89690  67.04954   3.86755  68.13395   8.53267  68.01385
      20   6.18528  68.61715         19.82782  -1.471699   8.53267  68.01385   3.86755  68.13395   3.83780  69.22051   8.50293  69.10091
      20   6.15534  69.70503         19.84435  -1.465492   8.50293  69.10091   3.83780  69.22051   3.80764  70.30921   8.47279  70.19011
      20   6.12499  70.79506         19.86089  -1.459292   8.47279  70.19011   3.80764  70.30921   3.77708  71.40006   8.44224  71.28147
      20   6.09423  71.88724         19.87745  -1.453098   8.44224  71.28147   3.77708  71.40006   3.74612  72.49307   8.41129  72.37498
      20   6.06307  72.98158         19.89402  -1.446910   8.41129  72.37498   3.74612  72.49307   3.71475  73.58823   8.37993  73.47065
      20   6.03150  74.07807         19.91060  -1.440728   8.37993  73.47065   3.71475  73.58823   3.68297  74.68556   8.34817  74.56848
      20   5.99953  75.17674         19.92720  -1.434552   8.34817  74.56848   3.68297  74.68556   3.65079  75.78505   8.31600  75.66848
      20   5.96715  76.27756         19.94382  -1.428382   8.31600  75.66848   3.65079  75.78505   3.61819  76.88672   8.28342  76.77064
      20   5.93435  77.38057         19.96044  -1.422219   8.28342  76.77064   3.61819  76.88672   3.58519  77.99055   8.25042  77.87498
      20   5.90115  78.48574         19.97708  -1.416063   8.25042  77.87498   3.58519  77.99055   3.55177  79.09657   8.21702  78.98149
      20   5.86754  79.59310         19.99374  -1.409913   8.21702  78.98149   3.55177  79.09657   3.51795  80.20476   8.18321  80.09019
      20   5.83351  80.70263         20.01041  -1.403769   8.18321  80.09019   3.51795  80.20476   3.48371  81.31514   8.14898  81.20107
      20   5.79907  81.81436         20.02709  -1.397633   8.14898  81.20107   3.48371  81.31514   3.44905  82.42772   8.11434  82.31414
      20   5.76421  82.92828         20.04378  -1.391503   8.11434  82.31414   3.44905  82.42772   3.41399  83.54248   8.07928  83.42940
      20   5.72894  84.04439         20.06049  -1.385381   8.07928  83.42940   3.41399  83.54248   3.37850  84.65944   8.04381  84.54686
      20   5.69326  85.16270         20.07722  -1.379265   8.04381  84.54686   3.37850  84.65944   3.34260  85.77860   8.00792  85.66652
      20   5.65715  86.28321         20.09396  -1.373156   8.00792  85.66652   3.34260  85.77860   3.30628  86.89997   7.97161  86.78839
      20   5.62063  87.40593         20.11071  -1.367055   7.97161  86.78839   3.30628  86.89997   3.26954  88.02355   7.93489  87.91246
      20   5.58369  88.53087         20.12747  -1.360961   7.93489  87.91246   3.26954  88.02355   3.23239  89.14934   7.89774  89.03875
      20   5.54633  89.65801         20.14425  -1.354875   7.89774  89.03875   3.23239  89.14934   3.19481  90.27735   7.86018  90.16725
      20   5.50854  90.78738         20.16105  -1.348796   7.86018  90.16725   3.19481  90.27735   3.15681  91.40757   7.82219  91.29797
      20   5.47034  91.91896         20.17786  -1.342725   7.82219  91.29797   3.15681  91.40757   3.11838  92.54003   7.78378  92.43092
      20   5.43171  93.05278         20.19468  -1.336661   7.78378  92.43092   3.11838  92.54003   3.07954  93.67471   7.74494  93.56610
      20   5.39265  94.18883         20.21151  -1.330605   7.74494  93.56610   3.07954  93.67471   3.04027  94.81163   7.70568  94.70351
      20   5.35318  95.32711         20.22836  -1.324557   7.70568  94.70351   3.04027  94.81163   3.00057  95.95078   7.66599  95.84315
      20   5.31327  96.46762         20.24523  -1.318517   7.66599  95.84315   3.00057  95.95078   2.96044  97.09217   7.62588  96.98504
      20   5.27294  97.61039         20.26211  -1.312485   7.62588  96.98504   2.96044  97.09217   2.91989  98.23581   7.58534  98.12917
      20   5.23218  98.75540         20.27900  -1.306461   7.58534  98.12917   2.91989  98.23581   2.87891  99.38170   7.54437  99.27555
      20   5.19099  99.90266         20.29590  -1.300446   7.54437  99.27555   2.87891  99.38170   2.83750 100.52984   7.50297 100.42418
      20   5.14936 101.05217         20.31282  -1.294439   7.50297 100.42418   2.83750 100.52984   2.79566 101.68024   7.46114 101.57507
      20   5.10731 102.20394         20.32976  -1.288440   7.46114 101.57507   2.79566 101.68024   2.75338 102.83290   7.41887 102.72821
      20   5.06483 103.35798         20.34671  -1.282450   7.41887 102.72821   2.75338 102.83290   2.71068 103.98783   7.37618 103.88363
      20   5.02191 104.51428         20.36367  -1.276469   7.37618 103.88363   2.71068 103.98783   2.66753 105.14502   7.33305 105.04131
      20   4.97856 105.67286         20.38065  -1.270496   7.33305 105.04131   2.66753 105.14502   2.62396 106.30449   7.28948 106.20126
      20   4.93477 106.83371         20.39764  -1.264533   7.28948 106.20126   2.62396 106.30449   2.57995 107.46624   7.24548 107.36350
      20   4.89054 107.99684         20.41464  -1.258578   7.24548 107.36350   2.57995 107.46624   2.53550 108.63027   7.20104 108.52801
      20   4.84588 109.16225         20.43166  -1.252632   7.20104 108.52801   2.53550 108.63027   2.49061 109.79658   7.15617 109.69481
      20   4.80078 110.32995         20.44870  -1.246696   7.15617 109.69481   2.49061 109.79658   2.44528 110.96518   7.11085 110.86389
      20   4.75524 111.49994         20.46574  -1.240768   7.11085 110.86389   2.44528 110.96518   2.39952 112.13608   7.06509 112.03527
      20   4.70925 112.67223         20.48281  -1.234851   7.06509 112.03527   2.39952 112.13608   2.35331 113.30928   7.01890 113.20895
      20   4.66283 113.84682         20.49988  -1.228942   7.01890 113.20895   2.35331 113.30928   2.30666 114.48478   6.97226 114.38493
      20   4.61596 115.02371         20.51697  -1.223043   6.97226 114.38493   2.30666 114.48478   2.25956 115.66258   6.92517 115.56321
      20   4.56865 116.20291         20.53408  -1.217154   6.92517 115.56321   2.25956 115.66258   2.21203 116.84270   6.87764 116.74381
      20   4.52090 117.38442         20.55119  -1.211275   6.87764 116.74381   2.21203 116.84270   2.16404 118.02513   6.82967 117.92672
      20   4.47270 118.56825         20.56833  -1.205405   6.82967 117.92672   2.16404 118.02513   2.11561 119.20987   6.78125 119.11194
      20   4.42405 119.75440         20.58548  -1.199546   6.78125 119.11194   2.11561 119.20987   2.06674 120.39695   6.73238 120.29949
      20   4.37495 120.94287         20.60264  -1.193697   6.73238 120.29949   2.06674 120.39695   2.01741 121.58634   6.68307 121.48936
      20   4.32540 122.13367         20.61981  -1.187857   6.68307 121.48936   2.01741 121.58634   1.96763 122.77807   6.63330 122.68157
      20   4.27541 123.32681         20.63700  -1.182029   6.63330 122.68157   1.96763 122.77807   1.91741 123.97214   6.58309 123.87611
      20   4.22496 124.52228         20.65421  -1.176210   6.58309 123.87611   1.91741 123.97214   1.86673 125.16855   6.53242 125.07299
      20   4.17406 125.72009         20.67143  -1.170402   6.53242 125.07299   1.86673 125.16855   1.81560 126.36729   6.48130 126.27221
      20   4.12271 126.92025         20.68866  -1.164605   6.48130 126.27221   1.81560 126.36729   1.76402 127.56839   6.42972 127.47378
      20   4.07090 128.12276         20.70591  -1.158819   6.42972 127.47378   1.76402 127.56839   1.71198 128.77184   6.37769 128.67770
      20   4.01864 129.32762         20.72317  -1.153043   6.37769 128.67770   1.71198 128.77184   1.65948 129.97765   6.32521 129.88397
      19  14.38572   2.03146         19.76183  -1.270589  16.71869   1.50185  12.05318   1.60562  12.05266   2.56107  16.71819   2.45788
      19  14.38505   2.98816         19.77831  -1.263489  16.71819   2.45788  12.05266   2.56107  12.05183   3.51843  16.71737   3.41582
      19  14.38407   3.94676         19.79480  -1.256388  16.71737   3.41582  12.05183   3.51843  12.05069   4.47770  16.71624   4.37566
      19  14.38278   4.90728         19.81130  -1.249286  16.71624   4.37566  12.05069   4.47770  12.04923   5.43888  16.71479   5.33743
      19  14.38117   5.86971         19.82782  -1.242184  16.71479   5.33743  12.04923   5.43888  12.04745   6.40199  16.71303   6.30111
      19  14.37924   6.83407         19.84435  -1.235082  16.71303   6.30111  12.04745   6.40199  12.04536   7.36702  16.71095   7.26672
      19  14.37699   7.80035         19.86089  -1.227980  16.71095   7.26672  12.04536   7.36702  12.04295   8.33397  16.70855   8.23425
      19  14.37443   8.76855         19.87745  -1.220877  16.70855   8.23425  12.04295   8.33397  12.04022   9.30285  16.70583   9.20371
      19  14.37154   9.73869         19.89402  -1.213774  16.70583   9.20371  12.04022   9.30285  12.03717  10.27366  16.70279  10.17510
      19  14.36834  10.71076         19.91060  -1.206671  16.70279  10.17510  12.03717  10.27366  12.03380  11.24641  16.69944  11.14843
      19  14.36481  11.68477         19.92720  -1.199568  16.69944  11.14843  12.03380  11.24641  12.03011  12.22110  16.69576  12.12369
      19  14.36097  12.66072         19.94382  -1.192464  16.69576  12.12369  12.03011  12.22110  12.02609  13.19773  16.69175  13.10091
      19  14.35680  13.63861         19.96044  -1.185361  16.69175  13.10091  12.02609  13.19773  12.02175  14.17631  16.68743  14.08006
      19  14.35230  14.61845         19.97708  -1.178258  16.68743  14.08006  12.02175  14.17631  12.01709  15.15684  16.68278  15.06117
      19  14.34749  15.60025         19.99374  -1.171155  16.68278  15.06117  12.01709  15.15684  12.01211  16.13932  16.67781  16.04423
      19  14.34234  16.58400         20.01041  -1.164052  16.67781  16.04423  12.01211  16.13932  12.00680  17.12376  16.67251  17.02925
      19  14.33688  17.56971         20.02709  -1.156950  16.67251  17.02925  12.00680  17.12376  12.00116  18.11016  16.66688  18.01623
      19  14.33108  18.55738         20.04378  -1.149847  16.66688  18.01623  12.00116  18.11016  11.99520  19.09853  16.66093  19.00517
      19  14.32496  19.54701         20.06049  -1.142745  16.66093  19.00517  11.99520  19.09853  11.98891  20.08886  16.65465  19.99608
      19  14.31851  20.53862         20.07722  -1.135644  16.65465  19.99608  11.98891  20.08886  11.98229  21.08116  16.64804  20.98896
      19  14.31173  21.53220         20.09396  -1.128543  16.64804  20.98896  11.98229  21.08116  11.97534  22.07544  16.64110  21.98381
      19  14.30462  22.52775         20.11071  -1.121443  16.64110  21.98381  11.97534  22.07544  11.96806  23.07169  16.63383  22.98065
